# <swcPlus>
# 	<metaData>
# 		<originalHeader>SWC to SWC conversion from L-Measure. Sridevi Polavaram: spolavar@gmu.edu
# Original fileName:C:\postprocessing\Mouselight_Final\Source_Temp1//AA0302.CNG.swc
# 
# SWC to SWC conversion from L-Measure. Sridevi Polavaram: spolavar@gmu.edu
# Original fileName:C:\Users\Jonathan\Desktop\NDPT\postprocessing\Mouselight_Final\Source_Temp1//AA0302.CNG.swc
# 
# SWC to SWC conversion from L-Measure. Sridevi Polavaram: spolavar@gmu.edu
# Original fileName:C:\Users\Jonathan\Desktop\NDPT\postprocessing\Mouselight_Final\Source_Temp1//AA0302.JR1.CNG.swc
# 
# SWC to SWC conversion from L-Measure. Sridevi Polavaram: spolavar@gmu.edu
# Original fileName:C:\NMO_dev\data_proc\Auto swc//AA0302.swc.swc.CNG.swc
# 
# Original file C:\NMO_dev\data_proc\Temp_LMeasure\AA0302.swc.swc edited using StdSwc version 1.31 on 11/15/17.
# Irregularities and fixes documented in C:\NMO_dev\data_proc\Temp_LMeasure\AA0302.swc.swc.std.  See StdSwc1.31.doc for more information.
# 
# SWC to SWC conversion from L-Measure. Sridevi Polavaram: spolavar@gmu.edu
# Original fileName:C:\NMO_dev\data_proc\Source_Temp1//AA0302.swc
# 
# Generated 2017/11/02. 
# Please consult Terms-of-Use at https://mouselight.janelia.org when referencing this reconstruction.
# DOI:					10.25378/janelia.5542666
# Neuron Id:			AA0302
# Sample Date:			Thu, 10 Aug 2017 19:05:24 GMT
# Sample Strain:		Rorb-Cre-1
# Label Virus:			AAV2/1.FLEX-tdTomato
# Label Fluorophore:	tdTomato
# ORIGINAL_SOURCE 
# CREATURE 
# REGION 
# FIELD/LAYER 
# TYPE 
# CONTRIBUTOR 
# REFERENCE 
# RAW 
# EXTRAS 
# SOMA_AREA 
# SHRINKAGE_CORRECTION 
# VERSION_NUMBER 
# VERSION_DATE 
# ********************************************* 
# SCALE 1.0 1.0 1.0 </originalHeader>
# 	</metaData>
# 	<customTypes/>
# 	<customProperties/>
# </swcPlus>
#
1 1 0 0 0 1 -1
2 1 -0.92 -0.27 0.08 1 1
3 1 0.92 0.27 -0.08 1 1
4 3 -0.26 -3.43 -0.55 1 1
5 3 -1.12 -9.2 -3.78 1 4
6 3 -7.03 -15 -5.95 1 5
7 3 2.62 -20.74 -0.68 1 6
8 3 4.56 -23.26 -4.8 1 7
9 3 5.53 -28.73 1.09 1 8
10 3 -9.18 -20.15 -1.84 1 6
11 3 -10.41 -23.59 -2.24 1 10
12 3 -9.64 -29.05 -1.66 1 11
13 3 -10.65 -35.91 -0.69 1 12
14 3 -21.32 -27.54 -0.3 1 11
15 3 -25.48 -30.24 3.86 1 14
16 3 1.88 5.52 -5.33 1 1
17 3 5.86 12.99 -11.16 1 16
18 3 5.19 20.69 -13.73 1 17
19 3 17.37 27.32 -8.92 1 18
20 3 2 13.38 -10.49 1 17
21 3 -0.86 13.72 -9.98 1 20
22 3 -15.53 5.59 -4.38 1 21
23 3 -17.9 1.41 -5.75 1 22
24 3 -29.25 5.74 -6.02 1 23
25 3 -33.11 10.28 0.36 1 24
26 3 -33.35 15.01 1.53 1 25
27 3 -38.1 19.72 3.09 1 26
28 3 -38.25 25.01 6.35 1 27
29 3 -38.79 39.17 7.3 1 28
30 3 -35.55 5.99 -5.01 1 24
31 3 -27.29 -12.08 -7.06 1 23
32 3 -40.12 -26.93 -8.05 1 31
33 3 -43.4 -29.06 -6.23 1 32
34 3 -14.53 18.03 -12.01 1 22
35 3 -15.22 23.76 -11.6 1 34
36 3 -18.5 32.93 -11.21 1 35
37 3 -18.91 38.95 -10.1 1 36
38 3 -19.43 48.74 -6.01 1 37
39 3 -24.73 48.35 -1.01 1 38
40 3 -12.79 64.56 -4.51 1 39
41 3 -0.38 7.72 5.77 1 1
42 3 0.28 12.33 7.47 1 41
43 3 14.4 16.32 2.05 1 42
44 3 25.29 21.89 3.8 1 43
45 3 -0.68 18.22 7.98 1 42
46 3 -3.44 18.78 13.52 1 45
47 3 -7.14 23.26 17.2 1 46
48 2 -2.18 -2.15 -3.02 1 1
49 2 22.27 -31.5 -10.62 1 48
50 2 24.48 -41.8 -6.07 1 49
51 2 6.03 -67.45 -3.32 1 50
52 2 -5.47 -97.33 -0.7 1 51
53 2 -23.35 -129.49 1.63 1 52
54 2 -34.97 -140.79 15 1 53
55 2 -51.51 -181.79 14.27 1 54
56 2 -65.32 -223.99 2.52 1 55
57 2 -68.11 -234.39 0.76 1 56
58 2 -72.52 -258.39 -2.3 1 57
59 2 -71.43 -265.39 -4.27 1 58
60 2 -63.29 -287.89 -9.16 1 59
61 2 -54.41 -308.79 -14.42 1 60
62 2 -53.91 -315.29 -15.21 1 61
63 2 -54.51 -323.29 -13.09 1 62
64 2 -47.21 -351.69 -11.89 1 63
65 2 -57.59 -388.09 -26.22 1 64
66 2 -56.62 -396.29 -29.76 1 65
67 2 -57.69 -426.68 -49.38 1 66
68 2 -66.51 -470.98 -41.61 1 67
69 2 -69.86 -490.29 -31.63 1 68
70 2 -60.55 -506.99 -8.19 1 69
71 2 -63.22 -513.69 10.39 1 70
72 2 -64.35 -524.29 28.56 1 71
73 2 -44.16 -539.79 40.8 1 72
74 2 -45.61 -554.69 47.94 1 73
75 2 -37.53 -571.79 51.08 1 74
76 2 -34.33 -598.69 51.16 1 75
77 2 -24.63 -626.5 58.23 1 76
78 2 -30.49 -650.4 60.41 1 77
79 2 -22.51 -673.5 54.97 1 78
80 2 -15.71 -705.2 75.97 1 79
81 2 -20.91 -729.1 89.41 1 80
82 2 -12.62 -727.6 122.22 1 81
83 2 -1.89 -730.9 136.52 1 82
84 2 -4.52 -740.1 135.82 1 83
85 2 -1.37 -735.6 157.42 1 84
86 2 -12.36 -740.9 161.22 1 85
87 2 -11.35 -745.1 164.72 1 86
88 2 -10.08 -750.5 167.72 1 87
89 2 -18.69 -763.9 168.02 1 88
90 2 -19.89 -776.4 167.01 1 89
91 2 -23.65 -786.5 164.21 1 90
92 2 -11.34 -802.8 160.51 1 91
93 2 -5.97 -812.9 158.41 1 92
94 2 2.43 -827.89 154.3 1 93
95 2 -2.49 -835.8 163.8 1 94
96 2 0.36 -843.5 161.2 1 95
97 2 -2.2 -852.4 159 1 96
98 2 -17.33 -871.8 153.61 1 97
99 2 -18.94 -885.5 153.71 1 98
100 2 -23.67 -898.2 155.21 1 99
101 2 -22.72 -914.2 155.21 1 100
102 2 -13.15 -910.6 163.1 1 101
103 2 -8.2 -914.9 174.5 1 102
104 2 -15.39 -917.31 184.6 1 103
105 2 -11.46 -918.21 202.5 1 104
106 2 -15.67 -930.41 212.1 1 105
107 2 -20.56 -947.11 211.5 1 106
108 2 -20.04 -956.41 210.8 1 107
109 2 -13.89 -969.91 208.79 1 108
110 2 -13.39 -984.31 206.09 1 109
111 2 -15.52 -990.91 205.69 1 110
112 2 -20.73 -1004.01 213.19 1 111
113 2 -7.91 -999.11 226.19 1 112
114 2 -0.54 -1004.01 240.79 1 113
115 2 7.37 -1008.01 247.78 1 114
116 2 8.75 -1013.01 250.88 1 115
117 2 1.44 -1026.02 261.48 1 116
118 2 -6.91 -1032.01 266.99 1 117
119 2 -20.36 -1036.01 272.69 1 118
120 2 -27.58 -1030.01 278.09 1 119
121 2 -33.4 -1026.01 282.29 1 120
122 2 -28.91 -1020.01 288.19 1 121
123 2 -37.5 -1033.01 300.19 1 122
124 2 -28.97 -1029.01 308.59 1 123
125 2 -23.22 -1030.02 314.59 1 124
126 2 -8.96 -1029.02 320.39 1 125
127 2 2.24 -1028.02 323.08 1 126
128 2 8.78 -1034.01 327.18 1 127
129 2 15.98 -1040.01 327.98 1 128
130 2 24.14 -1049.01 329.78 1 129
131 2 27.66 -1060.01 331.08 1 130
132 2 24.73 -1077.01 333.78 1 131
133 2 23.49 -1083.01 336.08 1 132
134 2 13.79 -1094.01 339.88 1 133
135 2 3.49 -1102.02 350.08 1 134
136 2 2.73 -1104.02 354.18 1 135
137 2 -2.31 -1117.03 367.18 1 136
138 2 -16.95 -1136.03 381.29 1 137
139 2 -20.26 -1143.03 402.19 1 138
140 2 -34.85 -1156.03 411.69 1 139
141 2 -35.4 -1162.03 420.89 1 140
142 2 -40.81 -1169.03 429.99 1 141
143 2 -49.32 -1183.03 434.58 1 142
144 2 -58.4 -1192.03 438.99 1 143
145 2 -64.25 -1194.03 443.49 1 144
146 2 -73.44 -1194.03 446.6 1 145
147 2 -87.52 -1197.03 451.3 1 146
148 2 -104.3 -1199.03 457.5 1 147
149 2 -126.8 -1207.03 467.01 1 148
150 2 -140.9 -1205.03 475.41 1 149
151 2 -163.5 -1208.04 482.62 1 150
152 2 -180.19 -1212.04 487.42 1 151
153 2 -196.09 -1218.04 491.63 1 152
154 2 -221.98 -1224.04 497.93 1 153
155 2 -249.98 -1236.04 505.45 1 154
156 2 -274.38 -1244.05 516.06 1 155
157 2 -289.57 -1256.05 526.26 1 156
158 2 -318.37 -1276.04 537.37 1 157
159 2 -342.57 -1292.04 538.87 1 158
160 2 -370.67 -1316.05 547.28 1 159
161 2 -397.07 -1335.06 548.58 1 160
162 2 -415.96 -1350.06 550.59 1 161
163 2 -442.76 -1368.06 552.99 1 162
164 2 -461.86 -1376.05 557.6 1 163
165 2 -478.16 -1377.05 561.9 1 164
166 2 -507.66 -1382.05 569.31 1 165
167 2 -521.06 -1399.06 575.91 1 166
168 2 -553.26 -1428.06 582.02 1 167
169 2 -565.85 -1443.06 586.62 1 168
170 2 -591.24 -1455.06 598.74 1 169
171 2 -625.04 -1463.07 608.25 1 170
172 2 -643.94 -1468.07 610.05 1 171
173 2 -671.53 -1490.07 615.86 1 172
174 2 -674.93 -1494.07 624.86 1 173
175 2 -701.93 -1510.07 641.16 1 174
176 2 -713.73 -1521.07 653.47 1 175
177 2 -740.22 -1545.07 666.47 1 176
178 2 -756.02 -1555.07 674.38 1 177
179 2 -759.02 -1566.07 678.38 1 178
180 2 -784.21 -1590.08 686.28 1 179
181 2 -797.01 -1602.09 692.38 1 180
182 2 -813.61 -1611.09 695.69 1 181
183 2 -818.31 -1618.09 695.59 1 182
184 2 -830.1 -1627.08 695.39 1 183
185 2 -855 -1652.08 697.1 1 184
186 2 -870.2 -1663.08 698.2 1 185
187 2 -886.6 -1677.08 700.2 1 186
188 2 -902.3 -1688.09 705.51 1 187
189 2 -903.4 -1689.09 710.71 1 188
190 2 -920.1 -1690.09 706.61 1 189
191 2 -960.3 -1697.09 708.92 1 190
192 2 -977.1 -1700.08 711.13 1 191
193 2 -1007.7 -1703.08 713.13 1 192
194 2 -1024.7 -1698.09 717.34 1 193
195 2 -1032.7 -1687.09 730.24 1 194
196 2 -1049.69 -1677.1 739.74 1 195
197 2 -1073.69 -1661.1 753.66 1 196
198 2 -1100.69 -1647.1 763.77 1 197
199 2 -1124.68 -1634.1 776.28 1 198
200 2 -1141.68 -1630.1 784.58 1 199
201 2 -1161.69 -1622.11 787.89 1 200
202 2 -1180.68 -1631.1 782.19 1 201
203 2 -1194.69 -1643.1 766.09 1 202
204 2 -1195.69 -1654.1 758.89 1 203
205 2 -1205.69 -1665.1 760.89 1 204
206 2 -1202.69 -1678.1 763.89 1 205
207 2 -1229.69 -1680.1 766.71 1 206
208 2 -1228.69 -1682.1 773.6 1 207
209 2 -1238.68 -1672.1 783.01 1 208
210 2 -1257.68 -1660.1 793.62 1 209
211 2 -1279.67 -1656.12 798.62 1 210
212 2 -1285.68 -1645.12 802.03 1 211
213 2 -1314.68 -1640.12 800.53 1 212
214 2 -1343.68 -1632.11 801.15 1 213
215 2 -1349.69 -1625.11 800.35 1 214
216 2 -1377.68 -1612.11 799.96 1 215
217 2 -1416.68 -1592.12 794.67 1 216
218 2 -1432.68 -1577.12 795.08 1 217
219 2 -1459.68 -1559.11 791.19 1 218
220 2 -1483.68 -1542.11 793.2 1 219
221 2 -1507.68 -1528.11 793.91 1 220
222 2 -1519.68 -1517.11 794.21 1 221
223 2 -1531.68 -1515.11 789.41 1 222
224 2 -1545.68 -1519.12 797.42 1 223
225 2 -1552.67 -1514.12 813.43 1 224
226 2 -1553.67 -1509.12 818.83 1 225
227 2 -1555.68 -1501.12 829.13 1 226
228 2 -1542.68 -1496.13 841.43 1 227
229 2 -1548.67 -1500.13 847.33 1 228
230 2 -1528.67 -1503.12 863.31 1 229
231 2 -1524.65 -1506.12 888.91 1 230
232 2 -1520.65 -1505.12 899.31 1 231
233 2 -1518.65 -1503.13 917.11 1 232
234 2 -1501.64 -1500.13 936.31 1 233
235 2 -1493.64 -1503.13 954.9 1 234
236 2 -1492.64 -1501.13 965 1 235
237 2 -1478.63 -1500.13 976.1 1 236
238 2 -1486.63 -1502.13 985.3 1 237
239 2 -1466.63 -1500.13 1003.3 1 238
240 2 -1450.62 -1499.13 1017.29 1 239
241 2 -1443.61 -1504.14 1034.29 1 240
242 2 -1424.6 -1499.14 1057.29 1 241
243 2 -1418.6 -1504.14 1080.28 1 242
244 2 -1411.59 -1506.15 1104.28 1 243
245 2 -1406.59 -1504.15 1113.28 1 244
246 2 -1408.58 -1504.15 1126.28 1 245
247 2 -1403.58 -1503.15 1133.28 1 246
248 2 -1398.58 -1501.14 1137.28 1 247
249 2 -1385.58 -1501.14 1146.27 1 248
250 2 -1379.58 -1503.14 1152.26 1 249
251 2 -1379.58 -1505.14 1161.26 1 250
252 2 -1373.57 -1505.15 1170.26 1 251
253 2 -1357.56 -1502.15 1183.26 1 252
254 2 -1365.56 -1505.15 1191.26 1 253
255 2 -1351.55 -1504.15 1206.26 1 254
256 2 -1345.55 -1501.15 1215.26 1 255
257 2 -1334.55 -1497.15 1228.25 1 256
258 2 -1343.55 -1501.15 1231.26 1 257
259 2 -1326.54 -1498.15 1247.25 1 258
260 2 -1321.54 -1496.15 1258.25 1 259
261 2 -1319.54 -1498.15 1267.25 1 260
262 2 -1311.54 -1499.15 1275.25 1 261
263 2 -1295.53 -1499.16 1284.24 1 262
264 2 -1289.53 -1503.16 1298.24 1 263
265 2 -1270.53 -1502.15 1313.24 1 264
266 2 -1261.52 -1500.15 1323.24 1 265
267 2 -1240.51 -1504.15 1349.23 1 266
268 2 -1235.51 -1503.15 1354.22 1 267
269 2 -1233.51 -1507.15 1362.22 1 268
270 2 -1223.5 -1511.15 1368.22 1 269
271 2 -1204.5 -1509.16 1382.21 1 270
272 2 -1202.5 -1511.17 1395.21 1 271
273 2 -1200.5 -1508.17 1397.21 1 272
274 2 -1195.49 -1511.17 1413.21 1 273
275 2 -1191.49 -1515.17 1427.21 1 274
276 2 -1186.49 -1517.17 1437.21 1 275
277 2 -1171.48 -1514.17 1448.2 1 276
278 2 -1163.48 -1513.17 1465.2 1 277
279 2 -1148.47 -1504.17 1480.2 1 278
280 2 -1144.46 -1504.17 1495.2 1 279
281 2 -1141.46 -1500.17 1502.19 1 280
282 2 -1123.46 -1497.17 1519.19 1 281
283 2 -1120.45 -1499.17 1534.19 1 282
284 2 -1112.45 -1496.17 1545.19 1 283
285 2 -1111.44 -1497.17 1561.19 1 284
286 2 -1107.44 -1496.17 1570.19 1 285
287 2 -1092.44 -1494.17 1580.18 1 286
288 2 -1085.44 -1493.17 1590.18 1 287
289 2 -1081.43 -1497.17 1603.18 1 288
290 2 -1065.43 -1491.17 1619.17 1 289
291 2 -1063.43 -1492.17 1631.17 1 290
292 2 -1046.41 -1488.18 1645.16 1 291
293 2 -1040.41 -1486.18 1653.16 1 292
294 2 -1029.41 -1482.18 1660.16 1 293
295 2 -1038.41 -1487.18 1664.16 1 294
296 2 -1021.41 -1491.18 1672.15 1 295
297 2 -1014.4 -1492.18 1678.15 1 296
298 2 -1002.4 -1490.17 1686.15 1 297
299 2 -997.9 -1485.18 1694.15 1 298
300 2 -1007.4 -1494.18 1693.15 1 299
301 2 -988.5 -1496.18 1707.15 1 300
302 2 -974.19 -1493.18 1717.14 1 301
303 2 -983.79 -1494.18 1726.15 1 302
304 2 -972.69 -1489.18 1734.14 1 303
305 2 -952.59 -1490.19 1753.15 1 304
306 2 -947.48 -1498.19 1770.15 1 305
307 2 -940.78 -1497.19 1781.14 1 306
308 2 -928.07 -1494.19 1790.14 1 307
309 2 -937.97 -1499.19 1797.14 1 308
310 2 -923.46 -1500.19 1800.13 1 309
311 2 -906.26 -1496.19 1816.13 1 310
312 2 -896.55 -1502.19 1845.12 1 311
313 2 -895.95 -1503.2 1861.12 1 312
314 2 -888.85 -1501.2 1875.12 1 313
315 2 -884.35 -1502.2 1901.12 1 314
316 2 -879.24 -1506.2 1926.12 1 315
317 2 -863.03 -1500.19 1952.11 1 316
318 2 -854.32 -1505.2 1977.11 1 317
319 2 -840.01 -1505.2 2012.11 1 318
320 2 -834.61 -1507.21 2029.11 1 319
321 2 -815.6 -1503.21 2051.1 1 320
322 2 -812.1 -1502.21 2069.1 1 321
323 2 -801.28 -1507.21 2098.1 1 322
324 2 -794.97 -1507.21 2125.1 1 323
325 2 -790.87 -1501.21 2138.1 1 324
326 2 -778.16 -1492.21 2163.09 1 325
327 2 -774.16 -1491.22 2171.09 1 326
328 2 -762.75 -1496.22 2194.08 1 327
329 2 -759.65 -1495.23 2206.08 1 328
330 2 -744.15 -1489.22 2220.08 1 329
331 2 -752.64 -1496.23 2234.08 1 330
332 2 -738.34 -1492.22 2246.07 1 331
333 2 -724.93 -1489.22 2260.07 1 332
334 2 -730.83 -1495.22 2272.07 1 333
335 2 -727.52 -1492.22 2283.07 1 334
336 2 -715.12 -1487.22 2295.07 1 335
337 2 -712.31 -1490.23 2312.07 1 336
338 2 -709.01 -1485.23 2325.07 1 337
339 2 -708.81 -1484.23 2342.07 1 338
340 2 -702.5 -1485.23 2355.06 1 339
341 2 -699.8 -1489.23 2374.06 1 340
342 2 -698.4 -1486.23 2383.06 1 341
343 2 -694.59 -1484.23 2393.06 1 342
344 2 -693.78 -1488.23 2410.06 1 343
345 2 -684.28 -1487.23 2425.06 1 344
346 2 -684.27 -1490.24 2444.06 1 345
347 2 -680.47 -1488.24 2459.06 1 346
348 2 -680.66 -1490.24 2476.06 1 347
349 2 -678.46 -1489.24 2482.06 1 348
350 2 -677.66 -1487.24 2489.06 1 349
351 2 -674.36 -1488.25 2498.06 1 350
352 2 -683.86 -1494.24 2509.06 1 351
353 2 -671.65 -1495.25 2522.06 1 352
354 2 -667.65 -1494.25 2534.06 1 353
355 2 -677.95 -1498.25 2546.06 1 354
356 2 -663.03 -1497.25 2566.05 1 355
357 2 -670.53 -1498.25 2581.06 1 356
358 2 -656.82 -1497.25 2604.05 1 357
359 2 -662.62 -1502.26 2625.05 1 358
360 2 -658.71 -1503.26 2634.05 1 359
361 2 -668.61 -1513.26 2648.06 1 360
362 2 -665.21 -1520.26 2657.05 1 361
363 2 -660.71 -1529.26 2667.05 1 362
364 2 -670.91 -1540.26 2676.05 1 363
365 2 -677.99 -1555.26 2689.06 1 364
366 2 -667.09 -1571.26 2694.04 1 365
367 2 -670.79 -1594.26 2700.04 1 366
368 2 -677.19 -1615.26 2698.04 1 367
369 2 -675.49 -1626.26 2704.04 1 368
370 2 -674.19 -1651.26 2711.04 1 369
371 2 -671.19 -1664.26 2708.04 1 370
372 2 -678.78 -1686.26 2725.04 1 371
373 2 -683.99 -1692.26 2723.04 1 372
374 2 -686.59 -1706.26 2726.04 1 373
375 2 -692.89 -1716.26 2727.04 1 374
376 2 -702.48 -1731.26 2731.05 1 375
377 2 -689.08 -1732.26 2726.04 1 376
378 2 -687.38 -1742.26 2722.04 1 377
379 2 -704.08 -1769.26 2723.04 1 378
380 2 -711.38 -1775.26 2716.05 1 379
381 2 -702.59 -1777.26 2693.04 1 380
382 2 -700.59 -1780.26 2684.04 1 381
383 2 -668.3 -1789.26 2659.02 1 382
384 2 -654.7 -1791.26 2637.02 1 383
385 2 -657.51 -1791.25 2617.02 1 384
386 2 -643.41 -1794.25 2604.02 1 385
387 2 -620.92 -1805.25 2574.01 1 386
388 2 -705.28 -1795.26 2721.03 1 380
389 2 -703.98 -1798.26 2720.03 1 388
390 2 -712.48 -1808.26 2721.04 1 389
391 2 -711.38 -1811.26 2718.03 1 390
392 2 -727.99 -1823.26 2702.04 1 391
393 2 -721.19 -1823.26 2694.04 1 392
394 2 -743.7 -1846.27 2667.04 1 393
395 2 -744.6 -1846.27 2653.04 1 394
396 2 -749.2 -1844.27 2646.05 1 395
397 2 -765.9 -1861.26 2628.06 1 396
398 2 -784.11 -1872.26 2609.06 1 397
399 2 -814.41 -1889.26 2583.07 1 398
400 2 -826.32 -1892.26 2577.07 1 399
401 2 -845.72 -1902.26 2553.07 1 400
402 2 -877.33 -1914.26 2535.08 1 401
403 2 -902.13 -1926.26 2527.09 1 402
404 2 -917.53 -1932.26 2521.09 1 403
405 2 -931.35 -1945.26 2511.08 1 404
406 2 -932.55 -1947.26 2503.09 1 405
407 2 -936.45 -1953.26 2497.09 1 406
408 2 -958.44 -1969.25 2484.09 1 407
409 2 -718.59 -1826.26 2683.04 1 393
410 2 -710.4 -1825.26 2661.03 1 409
411 2 -697.17 -1820.26 2727.03 1 391
412 2 -695.97 -1827.26 2724.03 1 411
413 2 -704.58 -1838.26 2722.03 1 412
414 2 -701.78 -1847.26 2720.03 1 413
415 2 -699.97 -1855.26 2718.03 1 414
416 2 -689.37 -1863.26 2715.03 1 415
417 2 -698.87 -1878.26 2727.03 1 416
418 2 -697.47 -1881.26 2719.03 1 417
419 2 -700.57 -1884.26 2718.03 1 418
420 2 -706.37 -1900.26 2711.03 1 419
421 2 -715.88 -1917.26 2702.03 1 420
422 2 -702.97 -1894.26 2720.03 1 417
423 2 -697.97 -1911.26 2717.03 1 422
424 2 -694.77 -1924.26 2718.03 1 423
425 2 -690.37 -1940.26 2722.02 1 424
426 2 -676.67 -1956.26 2724.01 1 425
427 2 -653.88 -1973.26 2715 1 426
428 2 -634.77 -1989.27 2708 1 427
429 2 -630.97 -1998.27 2705 1 428
430 2 -625.27 -2008.27 2703 1 429
431 2 -618.87 -2017.27 2697.99 1 430
432 2 -611.38 -2030.26 2691.99 1 431
433 2 -586.08 -2039.26 2687.97 1 432
434 2 -576.88 -2049.26 2684.97 1 433
435 2 -560.88 -2061.26 2684.97 1 434
436 2 -548.38 -2077.25 2678.96 1 435
437 2 -530.98 -2091.25 2676.96 1 436
438 2 -522.19 -2103.25 2668.96 1 437
439 2 -518.68 -2111.25 2666.95 1 438
440 2 -510.78 -2128.25 2657.94 1 439
441 2 -496.58 -2137.25 2656.94 1 440
442 2 -489.08 -2146.25 2651.94 1 441
443 2 -484.99 -2158.24 2646.93 1 442
444 2 -477.19 -2172.24 2641.93 1 443
445 2 -465.99 -2181.24 2640.93 1 444
446 2 -460.89 -2191.25 2636.93 1 445
447 2 -454.29 -2202.25 2631.92 1 446
448 2 -451.69 -2213.25 2627.92 1 447
449 2 -443.3 -2228.25 2622.91 1 448
450 2 -437.69 -2241.25 2619.91 1 449
451 2 -425.09 -2253.25 2617.91 1 450
452 2 -416.19 -2270.25 2614.9 1 451
453 2 -691.98 -1767.26 2713.04 1 379
454 2 -686.68 -1764.26 2712.04 1 453
455 2 -672.88 -1762.26 2708.03 1 454
456 2 -624.09 -1757.27 2696.01 1 455
457 2 -708.08 -1756.26 2727.05 1 378
458 2 -709.18 -1758.26 2729.05 1 457
459 2 -717.08 -1767.26 2721.05 1 458
460 2 -722.78 -1773.26 2711.05 1 459
461 2 -737.79 -1787.26 2696.05 1 460
462 2 -766.1 -1804.27 2670.06 1 461
463 2 -770 -1815.26 2650.06 1 462
464 2 -790.01 -1843.26 2623.06 1 463
465 2 -741.18 -1748.26 2731.05 1 458
466 2 -760.27 -1741.27 2740.06 1 465
467 2 -697.07 -1743.26 2741.04 1 377
468 2 -694.57 -1746.26 2745.04 1 467
469 2 -701.76 -1751.26 2753.04 1 468
470 2 -698.06 -1767.26 2769.04 1 469
471 2 -694.26 -1771.26 2777.04 1 470
472 2 -703.46 -1799.26 2786.03 1 471
473 2 -716.86 -1756.26 2769.05 1 469
474 2 -715.86 -1760.26 2778.05 1 473
475 2 -734.65 -1768.27 2787.05 1 474
476 2 -736.65 -1772.27 2793.05 1 475
477 2 -730.85 -1787.27 2789.05 1 476
478 2 -736.56 -1796.27 2785.05 1 477
479 2 -734.06 -1803.27 2788.05 1 478
480 2 -719.26 -1813.27 2793.04 1 479
481 2 -694.48 -1710.26 2748.04 1 373
482 2 -701.88 -1718.26 2754.05 1 481
483 2 -717.28 -1721.26 2744.05 1 482
484 2 -722.68 -1723.26 2736.05 1 483
485 2 -710.69 -1712.26 2717.05 1 484
486 2 -704.29 -1706.26 2707.05 1 485
487 2 -692.49 -1703.26 2690.04 1 486
488 2 -685.4 -1692.26 2666.04 1 487
489 2 -688.5 -1692.26 2647.04 1 488
490 2 -681.31 -1678.26 2635.04 1 489
491 2 -689.62 -1654.26 2632.05 1 490
492 2 -725.19 -1719.26 2725.05 1 484
493 2 -732.59 -1720.26 2717.05 1 492
494 2 -759.99 -1724.27 2697.06 1 493
495 2 -795.8 -1717.26 2659.07 1 494
496 2 -800.9 -1722.26 2643.07 1 495
497 2 -821 -1718.26 2632.09 1 496
498 2 -729.69 -1715.26 2710.05 1 493
499 2 -734.49 -1708.26 2696.05 1 498
500 2 -724.99 -1697.26 2685.05 1 499
501 2 -720.6 -1687.26 2681.05 1 500
502 2 -725.4 -1675.26 2664.05 1 501
503 2 -677.11 -1642.26 2640.04 1 502
504 2 -649.11 -1629.26 2639.04 1 503
505 2 -740.69 -1721.26 2722.06 1 492
506 2 -795.58 -1747.27 2731.07 1 505
507 2 -845.48 -1754.27 2725.09 1 506
508 2 -877.08 -1766.28 2727.1 1 507
509 2 -708.95 -1739.26 2778.05 1 482
510 2 -713.05 -1753.27 2787.05 1 509
511 2 -722.65 -1766.27 2811.05 1 510
512 2 -739.55 -1781.27 2821.05 1 511
513 2 -741.94 -1787.28 2832.05 1 512
514 2 -751.34 -1796.28 2838.06 1 513
515 2 -749.04 -1799.28 2839.05 1 514
516 2 -752.64 -1805.28 2857.06 1 515
517 2 -742.13 -1807.28 2875.05 1 516
518 2 -743.02 -1811.29 2895.05 1 517
519 2 -732.42 -1812.28 2905.05 1 518
520 2 -727.42 -1817.28 2910.05 1 519
521 2 -733.01 -1824.28 2927.05 1 520
522 2 -725.91 -1828.28 2939.04 1 521
523 2 -722.8 -1836.29 2963.04 1 522
524 2 -720.3 -1838.29 2974.04 1 523
525 2 -727.2 -1847.29 2989.04 1 524
526 2 -716.6 -1855.29 3001.03 1 525
527 2 -710.98 -1862.29 3009.03 1 526
528 2 -718.98 -1870.29 3025.03 1 527
529 2 -716.77 -1895.29 3054.03 1 528
530 2 -713.56 -1898.29 3065.03 1 529
531 2 -718.66 -1907.29 3078.03 1 530
532 2 -717.86 -1915.29 3088.03 1 531
533 2 -712.76 -1921.3 3092.03 1 532
534 2 -708.25 -1933.3 3120.03 1 533
535 2 -710.44 -1944.3 3131.03 1 534
536 2 -722.33 -1969.31 3169.03 1 535
537 2 -718.53 -1983.31 3191.03 1 536
538 2 -736.62 -2017.32 3226.03 1 537
539 2 -740.22 -2036.32 3235.02 1 538
540 2 -747.9 -2051.32 3255.02 1 539
541 2 -735.69 -2071.32 3268.02 1 540
542 2 -739.49 -2080.32 3277.02 1 541
543 2 -718.59 -2110.31 3292.01 1 542
544 2 -714.79 -2138.31 3306.01 1 543
545 2 -703.89 -2168.31 3319 1 544
546 2 -707.07 -2185.31 3328 1 545
547 2 -706.97 -2190.31 3326 1 546
548 2 -702.98 -2206.31 3310 1 547
549 2 -709.69 -2227.31 3301 1 548
550 2 -702.09 -2239.31 3298 1 549
551 2 -700.18 -2252.31 3297.99 1 550
552 2 -709.28 -2270.31 3301 1 551
553 2 -711.78 -2284.31 3297 1 552
554 2 -704.77 -2308.31 3290.99 1 553
555 2 -696.48 -2345.31 3284.98 1 554
556 2 -695.28 -2368.31 3277.98 1 555
557 2 -681.88 -2375.31 3281.98 1 556
558 2 -737.99 -2093.32 3296.02 1 542
559 2 -745.68 -2106.33 3328.02 1 558
560 2 -737.88 -2115.32 3325.02 1 559
561 2 -733.1 -1855.29 2993.04 1 525
562 2 -731.29 -1870.29 3006.04 1 561
563 2 -737.38 -1878.29 3015.04 1 562
564 2 -746.08 -1857.3 3015.04 1 561
565 2 -767.39 -1872.3 3009.05 1 564
566 2 -780.08 -1884.3 3015.05 1 565
567 2 -746.1 -1808.3 2956.05 1 521
568 2 -751.9 -1797.3 2978.06 1 567
569 2 -766.09 -1789.3 2997.06 1 568
570 2 -796.98 -1781.3 3033.07 1 569
571 2 -804.06 -1771.3 3062.07 1 570
572 2 -826.56 -1770.3 3091.08 1 571
573 2 -852.16 -1765.31 3116.09 1 572
574 2 -876.15 -1759.32 3153.1 1 573
575 2 -889.95 -1757.32 3176.1 1 574
576 2 -892.34 -1751.32 3196.1 1 575
577 2 -922.52 -1751.33 3242.11 1 576
578 2 -947.51 -1754.33 3270.11 1 577
579 2 -959.31 -1757.33 3287.11 1 578
580 2 -973.9 -1775.33 3312.11 1 579
581 2 -988.4 -1785.33 3332.12 1 580
582 2 -997.98 -1787.34 3357.12 1 581
583 2 -1000.88 -1791.34 3364.12 1 582
584 2 -1015.88 -1802.35 3380.12 1 583
585 2 -1014.86 -1807.35 3398.12 1 584
586 2 -1022.86 -1813.35 3403.12 1 585
587 2 -1039.86 -1824.35 3430.14 1 586
588 2 -1056.85 -1832.35 3451.14 1 587
589 2 -1060.85 -1836.35 3454.14 1 588
590 2 -1073.85 -1843.35 3471.14 1 589
591 2 -1071.83 -1846.35 3488.14 1 590
592 2 -1078.83 -1851.35 3497.15 1 591
593 2 -761.74 -1808.28 2837.06 1 515
594 2 -790.53 -1831.28 2873.06 1 593
595 2 -798.13 -1843.28 2883.07 1 594
596 2 -808.12 -1857.28 2900.07 1 595
597 2 -816.52 -1861.28 2906.07 1 596
598 2 -815.72 -1871.29 2919.07 1 597
599 2 -841.31 -1893.29 2928.07 1 598
600 2 -847 -1901.29 2941.08 1 599
601 2 -861.3 -1916.29 2964.08 1 600
602 2 -879.99 -1932.3 2981.08 1 601
603 2 -884.18 -1929.3 2998.08 1 602
604 2 -913.38 -1937.3 3005.09 1 603
605 2 -916.98 -1945.3 3025.09 1 604
606 2 -948.67 -1965.31 3048.09 1 605
607 2 -968.47 -1980.31 3060.09 1 606
608 2 -977.17 -1992.31 3078.09 1 607
609 2 -993.95 -2010.31 3097.1 1 608
610 2 -1009.95 -2020.32 3108.1 1 609
611 2 -1017.95 -2029.32 3125.1 1 610
612 2 -1027.93 -2037.32 3142.11 1 611
613 2 -1038.93 -2048.32 3159.11 1 612
614 2 -1058.93 -2056.32 3168.11 1 613
615 2 -1070.93 -2063.32 3176.12 1 614
616 2 -1080.93 -2066.32 3179.12 1 615
617 2 -1088.92 -2066.32 3191.13 1 616
618 2 -687.99 -1563.26 2717.06 1 365
619 2 -688.38 -1568.26 2730.06 1 618
620 2 -704.58 -1582.26 2743.06 1 619
621 2 -706.28 -1591.26 2761.06 1 620
622 2 -722.98 -1604.26 2778.07 1 621
623 2 -733.96 -1612.27 2796.07 1 622
624 2 -739.15 -1633.27 2813.07 1 623
625 2 -757.25 -1646.28 2825.07 1 624
626 2 -770.14 -1676.28 2852.07 1 625
627 2 -781.34 -1695.28 2843.08 1 626
628 2 -790.55 -1718.28 2843.07 1 627
629 2 -797.95 -1726.28 2838.07 1 628
630 2 -807.74 -1742.28 2826.07 1 629
631 2 -806.35 -1758.28 2812.07 1 630
632 2 -811.25 -1768.28 2808.07 1 631
633 2 -819.55 -1773.28 2799.07 1 632
634 2 -820.75 -1782.28 2795.07 1 633
635 2 -827.06 -1791.28 2787.07 1 634
636 2 -823.26 -1798.28 2781.07 1 635
637 2 -812.16 -1801.28 2779.07 1 636
638 2 -818.26 -1809.28 2772.07 1 637
639 2 -817.96 -1817.28 2773.07 1 638
640 2 -805.27 -1824.28 2758.07 1 639
641 2 -810.07 -1846.27 2737.07 1 640
642 2 -809.07 -1857.26 2724.07 1 641
643 2 -808.17 -1868.26 2722.07 1 642
644 2 -803.97 -1880.26 2716.07 1 643
645 2 -789.57 -1884.27 2709.06 1 644
646 2 -782.87 -1901.27 2701.05 1 645
647 2 -775.38 -1920.27 2694.05 1 646
648 2 -778.08 -1935.26 2673.05 1 647
649 2 -772.19 -1947.26 2667.04 1 648
650 2 -770.79 -1957.26 2667.04 1 649
651 2 -757.6 -1965.27 2651.04 1 650
652 2 -757.7 -1966.26 2642.04 1 651
653 2 -753.2 -1976.26 2633.04 1 652
654 2 -747.9 -1998.26 2619.04 1 653
655 2 -731.6 -2009.26 2613.03 1 654
656 2 -738.2 -2022.26 2615.02 1 655
657 2 -727.21 -2029.26 2603.02 1 656
658 2 -730.31 -2050.25 2590.02 1 657
659 2 -725.52 -2063.24 2578.02 1 658
660 2 -718.12 -2077.24 2566.02 1 659
661 2 -696.52 -2082.25 2559.01 1 660
662 2 -695.62 -2104.25 2534.01 1 661
663 2 -684.83 -2107.25 2518.01 1 662
664 2 -686.13 -2120.24 2508.01 1 663
665 2 -681.83 -2136.24 2497.99 1 664
666 2 -677.63 -2150.24 2494.99 1 665
667 2 -677.34 -2171.24 2481.99 1 666
668 2 -670.04 -2191.24 2471.99 1 667
669 2 -646.35 -2196.25 2463.98 1 668
670 2 -638.84 -2211.25 2447.98 1 669
671 2 -634.55 -2229.24 2425.98 1 670
672 2 -662.82 -2108.25 2539 1 662
673 2 -626.52 -2112.25 2553.98 1 672
674 2 -594.62 -2104.24 2549.97 1 673
675 2 -576.52 -2106.24 2536.97 1 674
676 2 -538.42 -2101.25 2532.96 1 675
677 2 -500.32 -2102.25 2527.94 1 676
678 2 -483.22 -2103.23 2525.94 1 677
679 2 -472.22 -2093.23 2526.93 1 678
680 2 -452.72 -2096.23 2526.93 1 679
681 2 -410.23 -2089.23 2531.92 1 680
682 2 -406.33 -2088.23 2532.92 1 681
683 2 -382.72 -2093.24 2531.91 1 682
684 2 -371.52 -2094.24 2535.91 1 683
685 2 -364.12 -2100.24 2531.91 1 684
686 2 -332.12 -2100.23 2533.89 1 685
687 2 -301.52 -2101.23 2533.88 1 686
688 2 -233.12 -2095.24 2539.86 1 687
689 2 -203.82 -2091.23 2539.86 1 688
690 2 -187.83 -2081.23 2534.85 1 689
691 2 -117.93 -2069.22 2529.82 1 690
692 2 -71.03 -2074.22 2536.81 1 691
693 2 -354.22 -2132.23 2528.89 1 685
694 2 -344.23 -2188.23 2530.89 1 693
695 2 -291.71 -2248.23 2540.86 1 694
696 2 -281.81 -2275.23 2545.86 1 695
697 2 -223.81 -2301.23 2544.84 1 696
698 2 -199.32 -2340.23 2535.82 1 697
699 2 -170.21 -2371.23 2531.82 1 698
700 2 -758.41 -1977.26 2593.04 1 653
701 2 -762.02 -1964.26 2571.04 1 700
702 2 -766.33 -1959.25 2545.04 1 701
703 2 -773.43 -1953.25 2529.04 1 702
704 2 -773.55 -1936.25 2510.05 1 703
705 2 -777.14 -1925.25 2513.05 1 704
706 2 -779.45 -1917.25 2507.05 1 705
707 2 -764.85 -1896.25 2484.04 1 706
708 2 -762.35 -1868.25 2454.05 1 707
709 2 -763.56 -1836.25 2429.06 1 708
710 2 -735.68 -1809.24 2408.05 1 709
711 2 -775.65 -1929.25 2490.05 1 704
712 2 -795.56 -1929.25 2465.05 1 711
713 2 -796.07 -1924.24 2415.05 1 712
714 2 -807.77 -1919.24 2400.05 1 713
715 2 -827.09 -1917.24 2361.07 1 714
716 2 -838.7 -1910.23 2331.07 1 715
717 2 -847.6 -1907.23 2306.08 1 716
718 2 -853.91 -1906.22 2290.08 1 717
719 2 -856.12 -1913.22 2258.08 1 718
720 2 -833.86 -1822.27 2765.08 1 639
721 2 -853.77 -1826.27 2751.08 1 720
722 2 -878.57 -1825.28 2745.09 1 721
723 2 -910.17 -1823.28 2732.1 1 722
724 2 -931.07 -1824.28 2722.1 1 723
725 2 -962.49 -1825.27 2712.11 1 724
726 2 -970.09 -1829.27 2697.11 1 725
727 2 -1000.1 -1837.28 2674.12 1 726
728 2 -1024.1 -1837.28 2658.12 1 727
729 2 -1042.1 -1838.28 2649.13 1 728
730 2 -1126.11 -1854.27 2598.16 1 729
731 2 -1153.11 -1864.28 2582.16 1 730
732 2 -1194.12 -1873.27 2561.17 1 731
733 2 -1325.14 -1905.27 2504.22 1 732
734 2 -1009.1 -1830.28 2664.12 1 727
735 2 -1030.1 -1820.28 2649.12 1 734
736 2 -1072.1 -1816.27 2646.15 1 735
737 2 -1028.1 -1805.28 2635.13 1 735
738 2 -779.14 -1682.28 2878.08 1 626
739 2 -781.73 -1682.28 2885.08 1 738
740 2 -789.53 -1683.28 2915.08 1 739
741 2 -786.61 -1686.29 2940.08 1 740
742 2 -808.51 -1686.29 2959.08 1 741
743 2 -808.7 -1686.29 2970.08 1 742
744 2 -814 -1692.29 2996.09 1 743
745 2 -819.49 -1703.3 3019.09 1 744
746 2 -821.19 -1702.3 3034.09 1 745
747 2 -833.28 -1702.3 3045.09 1 746
748 2 -844.78 -1702.29 3050.09 1 747
749 2 -838.88 -1693.3 3070.09 1 748
750 2 -839.68 -1691.3 3075.09 1 749
751 2 -849.76 -1692.31 3084.09 1 750
752 2 -862.26 -1704.3 3088.1 1 751
753 2 -881.76 -1717.31 3088.1 1 752
754 2 -889.96 -1732.31 3102.1 1 753
755 2 -901.76 -1739.31 3102.11 1 754
756 2 -912.16 -1751.31 3104.11 1 755
757 2 -922.76 -1756.31 3108.11 1 756
758 2 -937.96 -1763.31 3111.1 1 757
759 2 -962.96 -1770.31 3119.11 1 758
760 2 -986.96 -1769.31 3124.12 1 759
761 2 -989.96 -1770.31 3132.12 1 760
762 2 -1003.95 -1781.32 3116.13 1 761
763 2 -1005.95 -1784.32 3113.13 1 762
764 2 -1015.95 -1791.32 3108.13 1 763
765 2 -1025.96 -1798.31 3102.13 1 764
766 2 -1026.96 -1811.31 3101.12 1 765
767 2 -1032.96 -1819.31 3088.13 1 766
768 2 -1014.96 -1825.31 3090.12 1 767
769 2 -998.96 -1834.32 3093.12 1 768
770 2 -989.96 -1842.31 3090.11 1 769
771 2 -974.67 -1850.31 3080.11 1 770
772 2 -963.77 -1853.31 3078.11 1 771
773 2 -961.67 -1854.31 3071.11 1 772
774 2 -1009.96 -1774.32 3138.13 1 761
775 2 -1027.95 -1783.32 3144.14 1 774
776 2 -1039.94 -1791.32 3154.14 1 775
777 2 -1066.94 -1803.32 3162.14 1 776
778 2 -1081.94 -1810.32 3172.15 1 777
779 2 -1114.93 -1825.32 3192.16 1 778
780 2 -1117.93 -1827.32 3193.16 1 779
781 2 -1129.93 -1827.33 3195.16 1 780
782 2 -1142.93 -1828.33 3193.16 1 781
783 2 -1146.92 -1830.33 3198.16 1 782
784 2 -1170.92 -1835.33 3205.17 1 783
785 2 -1178.92 -1836.33 3205.17 1 784
786 2 -1181.92 -1836.33 3208.17 1 785
787 2 -1198.92 -1841.33 3215.18 1 786
788 2 -1230.92 -1845.32 3219.19 1 787
789 2 -1268.92 -1858.33 3226.2 1 788
790 2 -1298.92 -1864.34 3220.21 1 789
791 2 -1322.92 -1875.34 3230.22 1 790
792 2 -1349.92 -1888.34 3231.22 1 791
793 2 -1374.92 -1901.34 3240.23 1 792
794 2 -1416.91 -1923.34 3248.24 1 793
795 2 -1428.91 -1930.34 3250.24 1 794
796 2 -1482.91 -1952.34 3268.26 1 795
797 2 -1503.89 -1958.34 3273.27 1 796
798 2 -1520.89 -1965.36 3278.27 1 797
799 2 -1279.91 -1847.34 3245.21 1 789
800 2 -1272.91 -1830.34 3271.21 1 799
801 2 -1269.9 -1814.35 3301.21 1 800
802 2 -1271.9 -1806.35 3306.21 1 801
803 2 -1268.9 -1792.35 3319.21 1 802
804 2 -1273.9 -1778.35 3332.21 1 803
805 2 -1270.89 -1768.35 3346.21 1 804
806 2 -1270.89 -1758.35 3359.21 1 805
807 2 -1278.88 -1754.35 3373.21 1 806
808 2 -1258.87 -1745.35 3392.21 1 807
809 2 -1248.87 -1738.35 3405.2 1 808
810 2 -1244.86 -1727.34 3426.2 1 809
811 2 -1248.85 -1737.36 3450.2 1 810
812 2 -1198.92 -1833.33 3216.18 1 786
813 2 -1225.92 -1831.33 3223.19 1 812
814 2 -1237.92 -1829.32 3229.2 1 813
815 2 -1255.91 -1819.34 3247.2 1 814
816 2 -1269.91 -1813.34 3268.21 1 815
817 2 -1283.9 -1793.34 3292.21 1 816
818 2 -1286.91 -1786.34 3299.21 1 817
819 2 -1300.9 -1775.34 3308.21 1 818
820 2 -1304.9 -1768.34 3315.23 1 819
821 2 -1305.9 -1762.34 3318.23 1 820
822 2 -1319.9 -1755.34 3330.23 1 821
823 2 -1332.89 -1746.34 3333.23 1 822
824 2 -1340.89 -1731.34 3346.24 1 823
825 2 -1271.91 -1779.34 3299.21 1 818
826 2 -1257.92 -1828.33 3225.2 1 814
827 2 -1272.92 -1831.33 3218.21 1 826
828 2 -1284.92 -1833.34 3219.21 1 827
829 2 -1310.92 -1847.34 3224.21 1 828
830 2 -1116.93 -1836.32 3192.16 1 780
831 2 -1125.93 -1843.33 3176.16 1 830
832 2 -931.96 -1746.31 3107.11 1 757
833 2 -960.97 -1741.31 3085.11 1 832
834 2 -979.88 -1734.31 3055.13 1 833
835 2 -982.09 -1731.3 3036.13 1 834
836 2 -967.29 -1728.29 3013.12 1 835
837 2 -977.4 -1729.29 2997.12 1 836
838 2 -979.7 -1729.29 2981.13 1 837
839 2 -859.36 -1693.31 3093.1 1 751
840 2 -858.36 -1696.31 3105.1 1 839
841 2 -870.35 -1699.32 3132.1 1 840
842 2 -889.85 -1703.32 3144.1 1 841
843 2 -900.55 -1708.31 3154.11 1 842
844 2 -903.04 -1714.32 3167.11 1 843
845 2 -910.94 -1716.32 3179.11 1 844
846 2 -906.94 -1717.32 3192.11 1 845
847 2 -907.34 -1716.32 3201.11 1 846
848 2 -916.83 -1719.32 3210.11 1 847
849 2 -918.13 -1717.32 3222.11 1 848
850 2 -923.73 -1724.32 3218.11 1 849
851 2 -938.62 -1730.32 3224.12 1 850
852 2 -954.22 -1751.32 3236.11 1 851
853 2 -959.12 -1768.32 3245.11 1 852
854 2 -964.82 -1780.32 3260.11 1 853
855 2 -968.11 -1806.32 3266.11 1 854
856 2 -980.4 -1830.32 3276.11 1 855
857 2 -981.6 -1847.32 3281.11 1 856
858 2 -986.11 -1867.32 3280.11 1 857
859 2 -997.71 -1888.33 3289.11 1 858
860 2 -1004.91 -1906.33 3291.11 1 859
861 2 -1003.91 -1916.33 3291.11 1 860
862 2 -1007.9 -1926.33 3286.11 1 861
863 2 -1007.89 -1935.33 3289.11 1 862
864 2 -1007.89 -1942.33 3294.11 1 863
865 2 -1016.89 -1950.33 3286.12 1 864
866 2 -1015.89 -1953.33 3286.12 1 865
867 2 -1016.89 -1959.33 3289.12 1 866
868 2 -1017.89 -1961.33 3288.12 1 867
869 2 -1025.89 -1967.33 3288.12 1 868
870 2 -1038.89 -1968.33 3305.12 1 869
871 2 -1053.88 -1980.33 3325.12 1 870
872 2 -1016.89 -1963.33 3279.12 1 866
873 2 -1004.9 -1977.33 3271.1 1 872
874 2 -991.5 -1983.32 3265.1 1 873
875 2 -977.41 -1991.32 3253.09 1 874
876 2 -972.41 -1995.32 3253.09 1 875
877 2 -961.71 -2004.32 3252.09 1 876
878 2 -958.31 -2012.32 3248.09 1 877
879 2 -944.91 -2024.33 3244.09 1 878
880 2 -926.31 -2032.33 3242.08 1 879
881 2 -909.6 -2048.33 3242.07 1 880
882 2 -898.7 -2058.32 3235.07 1 881
883 2 -867.4 -2066.32 3236.06 1 882
884 2 -852.8 -2069.31 3233.06 1 883
885 2 -821.62 -2078.31 3218.05 1 884
886 2 -809.22 -2086.31 3210.05 1 885
887 2 -801.22 -2100.31 3205.04 1 886
888 2 -793.62 -2107.31 3196.03 1 887
889 2 -780.23 -2112.31 3194.03 1 888
890 2 -927.03 -1717.33 3227.11 1 849
891 2 -933.21 -1725.33 3252.11 1 890
892 2 -935.51 -1718.33 3265.11 1 891
893 2 -932.6 -1709.33 3308.11 1 892
894 2 -945.59 -1705.33 3325.12 1 893
895 2 -956.29 -1705.33 3338.12 1 894
896 2 -959.18 -1710.33 3362.12 1 895
897 2 -969.47 -1716.33 3382.12 1 896
898 2 -975.76 -1695.34 3405.13 1 897
899 2 -992.26 -1698.35 3414.13 1 898
900 2 -998.86 -1700.35 3425.13 1 899
901 2 -1019.86 -1706.35 3424.14 1 900
902 2 -1025.86 -1702.35 3427.14 1 901
903 2 -1050.85 -1700.35 3439.14 1 902
904 2 -1064.85 -1702.34 3441.15 1 903
905 2 -1081.85 -1698.34 3447.15 1 904
906 2 -1107.85 -1697.34 3444.17 1 905
907 2 -1133.85 -1695.35 3449.18 1 906
908 2 -1135.85 -1691.35 3457.18 1 907
909 2 -1148.85 -1688.35 3464.18 1 908
910 2 -1151.85 -1689.35 3471.18 1 909
911 2 -1170.84 -1690.36 3477.19 1 910
912 2 -1173.85 -1686.36 3493.19 1 911
913 2 -1184.85 -1681.36 3503.19 1 912
914 2 -1194.85 -1680.36 3512.19 1 913
915 2 -1202.84 -1672.36 3527.19 1 914
916 2 -1224.84 -1668.36 3538.21 1 915
917 2 -1233.84 -1665.36 3544.21 1 916
918 2 -1244.83 -1661.36 3557.21 1 917
919 2 -1276.82 -1663.37 3569.22 1 918
920 2 -1287.82 -1661.36 3572.23 1 919
921 2 -1303.82 -1654.36 3577.23 1 920
922 2 -1352.82 -1653.37 3569.24 1 921
923 2 -1407.82 -1660.38 3561.27 1 922
924 2 -1444.82 -1667.37 3559.28 1 923
925 2 -1196.84 -1668.36 3532.19 1 914
926 2 -1206.83 -1665.36 3553.2 1 925
927 2 -1223.82 -1663.36 3577.21 1 926
928 2 -1228.82 -1664.36 3586.21 1 927
929 2 -1235.81 -1670.36 3613.21 1 928
930 2 -1233.8 -1678.37 3651.21 1 929
931 2 -1226.81 -1670.36 3592.21 1 928
932 2 -1243.81 -1682.37 3620.21 1 931
933 2 -1273.81 -1684.38 3625.22 1 932
934 2 -1293.81 -1688.38 3629.23 1 933
935 2 -1337.8 -1703.37 3642.24 1 934
936 2 -1396.8 -1738.38 3638.25 1 935
937 2 -1429.8 -1729.38 3627.27 1 936
938 2 -1465.8 -1718.37 3617.28 1 937
939 2 -1503.81 -1724.38 3574.29 1 938
940 2 -845.58 -1681.3 3072.09 1 750
941 2 -850.28 -1670.29 3067.1 1 940
942 2 -846.48 -1661.29 3037.09 1 941
943 2 -840.69 -1648.29 3013.09 1 942
944 2 -843.2 -1621.29 2985.1 1 943
945 2 -849.71 -1606.29 2974.1 1 944
946 2 -853.81 -1602.29 2972.1 1 945
947 2 -858.72 -1596.29 2962.11 1 946
948 2 -849.82 -1595.29 2951.1 1 947
949 2 -852.12 -1598.29 2939.1 1 948
950 2 -845.22 -1584.29 2968.11 1 946
951 2 -828.52 -1567.29 2961.1 1 950
952 2 -850.19 -1637.29 3001.1 1 943
953 2 -846 -1626.29 2986.1 1 952
954 2 -850.6 -1616.29 2981.1 1 953
955 2 -855.22 -1606.29 2965.1 1 954
956 2 -844.42 -1601.29 2950.1 1 955
957 2 -823.28 -1691.3 3076.09 1 747
958 2 -816.06 -1688.31 3108.09 1 957
959 2 -818.65 -1686.31 3128.09 1 958
960 2 -805.35 -1684.31 3145.08 1 959
961 2 -794.85 -1683.31 3155.08 1 960
962 2 -784.84 -1688.31 3158.08 1 961
963 2 -779.24 -1689.31 3175.08 1 962
964 2 -763.84 -1692.32 3181.06 1 963
965 2 -754.84 -1697.32 3188.06 1 964
966 2 -706.93 -1695.31 3205.05 1 965
967 2 -682.13 -1696.31 3226.04 1 966
968 2 -661.51 -1694.31 3241.04 1 967
969 2 -631.03 -1694.32 3230.03 1 968
970 2 -606.13 -1695.31 3220.01 1 969
971 2 -648.71 -1686.32 3264.03 1 968
972 2 -629.2 -1687.32 3279.03 1 971
973 2 -610.5 -1677.32 3296.02 1 972
974 2 -587.89 -1674.31 3315.01 1 973
975 2 -557.79 -1673.32 3331 1 974
976 2 -538.69 -1675.32 3345 1 975
977 2 -528.88 -1688.32 3359.99 1 976
978 2 -499.28 -1709.32 3382.98 1 977
979 2 -505.47 -1715.32 3396.99 1 978
980 2 -486.96 -1717.32 3416.97 1 979
981 2 -462.45 -1721.32 3456.97 1 980
982 2 -453.65 -1714.32 3467.96 1 981
983 2 -771.54 -1727.32 3195.06 1 965
984 2 -775.84 -1742.32 3207.06 1 983
985 2 -782.93 -1768.31 3206.06 1 984
986 2 -798.62 -1785.31 3217.07 1 985
987 2 -810.21 -1794.31 3234.07 1 986
988 2 -822.61 -1804.31 3253.07 1 987
989 2 -838.41 -1823.31 3257.08 1 988
990 2 -864.61 -1854.33 3270.08 1 989
991 2 -879.91 -1875.33 3278.08 1 990
992 2 -883.91 -1882.33 3287.09 1 991
993 2 -900.61 -1887.33 3254.09 1 992
994 2 -920.22 -1888.33 3240.09 1 993
995 2 -931.62 -1888.32 3218.09 1 994
996 2 -930.53 -1892.31 3203.09 1 995
997 2 -903.5 -1910.33 3295.09 1 992
998 2 -921.89 -1921.33 3304.08 1 997
999 2 -931.28 -1935.33 3314.09 1 998
1000 2 -947.58 -1941.33 3318.09 1 999
1001 2 -957.78 -1959.33 3335.09 1 1000
1002 2 -974.18 -1963.33 3338.09 1 1001
1003 2 -992.08 -1977.34 3352.1 1 1002
1004 2 -1011.88 -1988.33 3349.1 1 1003
1005 2 -1039.88 -1998.34 3358.12 1 1004
1006 2 -1059.87 -2012.34 3370.12 1 1005
1007 2 -1094.87 -2026.34 3386.13 1 1006
1008 2 -991.77 -1981.33 3367.1 1 1003
1009 2 -1002.87 -1995.35 3378.1 1 1008
1010 2 -800.24 -1679.31 3168.08 1 961
1011 2 -793.94 -1681.31 3182.08 1 1010
1012 2 -793.64 -1680.31 3187.08 1 1011
1013 2 -802.93 -1671.31 3196.08 1 1012
1014 2 -816.93 -1662.31 3210.09 1 1013
1015 2 -822.14 -1642.31 3221.09 1 1014
1016 2 -834.23 -1618.31 3252.09 1 1015
1017 2 -836.52 -1600.31 3273.09 1 1016
1018 2 -841.42 -1583.32 3284.11 1 1017
1019 2 -846.01 -1569.32 3290.11 1 1018
1020 2 -889.6 -1525.33 3341.12 1 1019
1021 2 -911.59 -1505.33 3360.13 1 1020
1022 2 -929.79 -1496.33 3368.14 1 1021
1023 2 -963.48 -1464.34 3395.15 1 1022
1024 2 -984.27 -1436.34 3420.15 1 1023
1025 2 -1006.87 -1404.35 3453.16 1 1024
1026 2 -1010.87 -1400.35 3457.17 1 1025
1027 2 -1018.86 -1387.35 3473.17 1 1026
1028 2 -1019.86 -1384.35 3474.17 1 1027
1029 2 -1029.86 -1377.35 3477.17 1 1028
1030 2 -1047.86 -1369.35 3499.18 1 1029
1031 2 -967.27 -1447.34 3436.14 1 1023
1032 2 -781.83 -1678.31 3200.08 1 1012
1033 2 -790.63 -1673.31 3210.08 1 1032
1034 2 -776.73 -1671.32 3222.08 1 1033
1035 2 -766.13 -1664.32 3229.07 1 1034
1036 2 -771.71 -1663.32 3262.08 1 1035
1037 2 -769.2 -1665.32 3291.07 1 1036
1038 2 -762.3 -1646.33 3334.07 1 1037
1039 2 -754.79 -1635.33 3380.07 1 1038
1040 2 -755.98 -1631.33 3395.07 1 1039
1041 2 -764.86 -1640.34 3433.07 1 1040
1042 2 -770.74 -1630.35 3501.08 1 1041
1043 2 -780.93 -1640.35 3544.08 1 1042
1044 2 -787.41 -1644.35 3596.08 1 1043
1045 2 -786.3 -1641.35 3636.08 1 1044
1046 2 -794.89 -1634.36 3686.08 1 1045
1047 2 -818.04 -1676.31 3177.09 1 960
1048 2 -815.35 -1678.31 3121.09 1 958
1049 2 -829.95 -1674.31 3127.09 1 1048
1050 2 -839.05 -1677.31 3131.09 1 1049
1051 2 -843.05 -1679.31 3136.09 1 1050
1052 2 -855.35 -1679.31 3142.1 1 1051
1053 2 -859.95 -1683.31 3142.1 1 1052
1054 2 -892.55 -1686.32 3143.11 1 1053
1055 2 -899.85 -1694.32 3159.11 1 1054
1056 2 -906.64 -1710.32 3171.11 1 1055
1057 2 -925.55 -1686.31 3129.12 1 1054
1058 2 -917.26 -1694.31 3105.11 1 1057
1059 2 -914.38 -1690.31 3074.11 1 1058
1060 2 -923.08 -1684.31 3048.11 1 1059
1061 2 -929.48 -1675.31 3039.12 1 1060
1062 2 -867.35 -1694.32 3131.1 1 1051
1063 2 -845.75 -1671.31 3135.09 1 1050
1064 2 -864.45 -1659.31 3140.1 1 1063
1065 2 -820.89 -1686.29 3002.09 1 744
1066 2 -832.59 -1674.29 3005.09 1 1065
1067 2 -858.49 -1666.29 3015.1 1 1066
1068 2 -870.59 -1651.3 3029.1 1 1067
1069 2 -877.78 -1651.3 3029.1 1 1068
1070 2 -877.58 -1654.3 3045.1 1 1069
1071 2 -890.88 -1659.31 3066.11 1 1070
1072 2 -911.27 -1663.31 3085.12 1 1071
1073 2 -922.36 -1666.31 3099.12 1 1072
1074 2 -935.36 -1668.31 3111.13 1 1073
1075 2 -887.68 -1647.3 3058.11 1 1070
1076 2 -896.48 -1638.31 3065.12 1 1075
1077 2 -901.88 -1635.31 3071.12 1 1076
1078 2 -898.28 -1631.31 3081.12 1 1077
1079 2 -896.68 -1626.31 3094.12 1 1078
1080 2 -890.97 -1623.31 3106.12 1 1079
1081 2 -886.76 -1614.31 3123.12 1 1080
1082 2 -889.86 -1608.31 3130.12 1 1081
1083 2 -909.75 -1603.31 3138.12 1 1082
1084 2 -908.65 -1600.31 3146.12 1 1083
1085 2 -903.85 -1596.31 3157.12 1 1084
1086 2 -888.18 -1644.3 3035.11 1 1069
1087 2 -892.88 -1640.3 3039.12 1 1086
1088 2 -907.69 -1634.3 3041.12 1 1087
1089 2 -923.99 -1629.31 3052.13 1 1088
1090 2 -918.29 -1616.3 3042.12 1 1089
1091 2 -926.89 -1600.3 3036.13 1 1090
1092 2 -930.69 -1588.3 3029.13 1 1091
1093 2 -916.99 -1569.3 3022.13 1 1092
1094 2 -922.39 -1557.3 3018.13 1 1093
1095 2 -937.29 -1529.3 3005.13 1 1094
1096 2 -943.09 -1622.31 3053.13 1 1089
1097 2 -961.59 -1617.31 3054.13 1 1096
1098 2 -978.18 -1611.31 3058.13 1 1097
1099 2 -980.48 -1609.31 3061.13 1 1098
1100 2 -1002.98 -1602.31 3065.14 1 1099
1101 2 -1018.98 -1596.31 3071.15 1 1100
1102 2 -1027.98 -1588.31 3061.15 1 1101
1103 2 -1045.98 -1586.31 3051.16 1 1102
1104 2 -1069.99 -1584.31 3027.16 1 1103
1105 2 -1099 -1590.31 3008.17 1 1104
1106 2 -1048.98 -1586.31 3090.16 1 1101
1107 2 -1067.97 -1578.31 3098.16 1 1106
1108 2 -1097.97 -1569.31 3107.17 1 1107
1109 2 -1114.97 -1563.31 3113.18 1 1108
1110 2 -1134.96 -1556.33 3127.19 1 1109
1111 2 -1159.96 -1551.33 3137.2 1 1110
1112 2 -1159.94 -1543.33 3160.2 1 1111
1113 2 -972.18 -1582.31 3082.13 1 1099
1114 2 -973.77 -1556.31 3097.14 1 1113
1115 2 -966.47 -1542.31 3113.14 1 1114
1116 2 -959.66 -1519.31 3119.14 1 1115
1117 2 -939.47 -1506.31 3131.14 1 1116
1118 2 -932.87 -1483.31 3135.14 1 1117
1119 2 -929.67 -1475.31 3135.14 1 1118
1120 2 -915.56 -1441.31 3142.14 1 1119
1121 2 -904.86 -1422.31 3140.14 1 1120
1122 2 -900.16 -1395.31 3119.14 1 1121
1123 2 -882.07 -1388.31 3108.13 1 1122
1124 2 -857.68 -1371.29 3076.13 1 1123
1125 2 -840.9 -1361.29 3046.12 1 1124
1126 2 -819.51 -1355.3 3026.12 1 1125
1127 2 -822.61 -1351.29 3009.12 1 1126
1128 2 -809.42 -1344.29 2982.12 1 1127
1129 2 -799.02 -1323.29 2950.12 1 1128
1130 2 -776.64 -1285.28 2923.11 1 1129
1131 2 -769.94 -1270.28 2899.11 1 1130
1132 2 -754.05 -1253.28 2871.11 1 1131
1133 2 -744.06 -1248.28 2834.1 1 1132
1134 2 -742.48 -1238.28 2795.1 1 1133
1135 2 -690.58 -1264.26 2777.08 1 1134
1136 2 -680.88 -1275.27 2776.08 1 1135
1137 2 -671.88 -1286.27 2771.08 1 1136
1138 2 -638.19 -1313.27 2754.07 1 1137
1139 2 -620.79 -1344.27 2721.05 1 1138
1140 2 -599.31 -1393.26 2676.04 1 1139
1141 2 -674.68 -1280.27 2785.08 1 1136
1142 2 -644.48 -1290.27 2783.07 1 1141
1143 2 -654.39 -1278.27 2757.07 1 1142
1144 2 -823.8 -1696.29 2981.09 1 743
1145 2 -849.5 -1701.29 2983.09 1 1144
1146 2 -871.6 -1701.3 2985.1 1 1145
1147 2 -886.5 -1704.3 2986.1 1 1146
1148 2 -901.6 -1704.3 2987.11 1 1147
1149 2 -921.2 -1703.3 2984.11 1 1148
1150 2 -971.7 -1699.29 2974.12 1 1149
1151 2 -1005 -1695.3 2976.13 1 1150
1152 2 -1047 -1696.31 2981.14 1 1151
1153 2 -1066 -1700.31 2983.15 1 1152
1154 2 -1091 -1700.31 2982.16 1 1153
1155 2 -1108 -1699.3 2991.17 1 1154
1156 2 -1153.99 -1719.31 3012.18 1 1155
1157 2 -1196.99 -1723.31 3025.19 1 1156
1158 2 -1206.99 -1726.31 3025.19 1 1157
1159 2 -1215.99 -1724.31 3031.2 1 1158
1160 2 -1252.99 -1731.32 3036.2 1 1159
1161 2 -1292.99 -1735.32 3033.22 1 1160
1162 2 -1308.99 -1735.32 3035.23 1 1161
1163 2 -1337.99 -1738.32 3031.24 1 1162
1164 2 -1375.99 -1741.32 3037.24 1 1163
1165 2 -1420.99 -1747.32 3038.26 1 1164
1166 2 -1423.99 -1749.32 3041.26 1 1165
1167 2 -1453.99 -1752.32 3043.27 1 1166
1168 2 -1466.99 -1754.32 3042.28 1 1167
1169 2 -1511.97 -1773.33 3053.29 1 1168
1170 2 -1529.96 -1779.33 3065.29 1 1169
1171 2 -1569.96 -1790.34 3069.3 1 1170
1172 2 -1630.96 -1809.33 3075.32 1 1171
1173 2 -1449.97 -1772.32 3060.26 1 1166
1174 2 -1471.96 -1781.32 3066.28 1 1173
1175 2 -1482.96 -1792.32 3074.28 1 1174
1176 2 -1497.96 -1810.32 3084.28 1 1175
1177 2 -1524.96 -1834.34 3098.29 1 1176
1178 2 -1562.96 -1864.34 3116.3 1 1177
1179 2 -1614.93 -1919.34 3150.31 1 1178
1180 2 -1646.93 -1930.34 3164.32 1 1179
1181 2 -1323.99 -1719.32 3033.23 1 1162
1182 2 -1328.99 -1706.32 3033.23 1 1181
1183 2 -1346.99 -1677.32 3025.24 1 1182
1184 2 -1362.99 -1654.32 3017.25 1 1183
1185 2 -1384.99 -1635.33 3009.26 1 1184
1186 2 -1404 -1622.32 3001.27 1 1185
1187 2 -1416 -1610.32 3007.27 1 1186
1188 2 -1431 -1604.32 3012.27 1 1187
1189 2 -1450.99 -1592.32 3016.28 1 1188
1190 2 -1217.99 -1748.31 3030.19 1 1158
1191 2 -1244.98 -1769.31 3028.2 1 1190
1192 2 -1273.98 -1784.31 3029.21 1 1191
1193 2 -1295.98 -1800.32 3031.21 1 1192
1194 2 -1310.97 -1806.32 3035.22 1 1193
1195 2 -1329.99 -1826.32 3014.22 1 1194
1196 2 -1331.97 -1813.32 3041.22 1 1194
1197 2 -1354.97 -1819.32 3045.24 1 1196
1198 2 -1384.97 -1830.33 3043.24 1 1197
1199 2 -1423.98 -1848.32 3039.25 1 1198
1200 2 -1440.98 -1856.32 3037.26 1 1199
1201 2 -1471.98 -1869.32 3041.26 1 1200
1202 2 -1527.98 -1889.33 3053.28 1 1201
1203 2 -1552.96 -1899.33 3060.28 1 1202
1204 2 -1569.97 -1898.32 3048.3 1 1203
1205 2 -1578.97 -1914.32 3057.3 1 1204
1206 2 -915.26 -1512.19 1803.13 1 310
1207 2 -902.57 -1525.19 1804.12 1 1206
1208 2 -879.16 -1535.18 1819.12 1 1207
1209 2 -883.16 -1558.19 1826.12 1 1208
1210 2 -873.16 -1573.19 1830.11 1 1209
1211 2 -857.66 -1581.19 1836.11 1 1210
1212 2 -862.06 -1598.19 1841.11 1 1211
1213 2 -839.76 -1612.19 1853.09 1 1212
1214 2 -830.86 -1626.19 1864.09 1 1213
1215 2 -826.95 -1636.19 1872.09 1 1214
1216 2 -803.63 -1643.19 1887.08 1 1215
1217 2 -808.03 -1658.19 1898.08 1 1216
1218 2 -797.43 -1664.19 1911.08 1 1217
1219 2 -788.73 -1674.19 1923.08 1 1218
1220 2 -767.52 -1682.2 1938.06 1 1219
1221 2 -756.62 -1695.2 1950.06 1 1220
1222 2 -748.52 -1701.19 1954.06 1 1221
1223 2 -724.02 -1711.19 1964.05 1 1222
1224 2 -689.72 -1719.19 1974.04 1 1223
1225 2 -691.62 -1727.19 1978.04 1 1224
1226 2 -675.81 -1728.2 1985.04 1 1225
1227 2 -669.4 -1734.2 1998.04 1 1226
1228 2 -658.6 -1748.2 2008.02 1 1227
1229 2 -643.4 -1750.2 2017.02 1 1228
1230 2 -632.7 -1755.2 2018.02 1 1229
1231 2 -608.39 -1763.19 2030.01 1 1230
1232 2 -591.69 -1765.19 2043.01 1 1231
1233 2 -578.68 -1780.19 2051 1 1232
1234 2 -555.28 -1786.2 2067 1 1233
1235 2 -506.67 -1799.2 2087.97 1 1234
1236 2 -474.47 -1811.19 2108.96 1 1235
1237 2 -453.56 -1815.2 2118.96 1 1236
1238 2 -434.46 -1820.2 2121.95 1 1237
1239 2 -423.55 -1823.2 2142.94 1 1238
1240 2 -392.35 -1829.2 2148.93 1 1239
1241 2 -378.04 -1837.2 2168.93 1 1240
1242 2 -362.74 -1835.2 2186.93 1 1241
1243 2 -333.43 -1836.2 2225.92 1 1242
1244 2 -327.53 -1844.2 2238.92 1 1243
1245 2 -316.52 -1860.21 2249.91 1 1244
1246 2 -310.62 -1867.21 2252.91 1 1245
1247 2 -309.11 -1872.21 2268.9 1 1246
1248 2 -305.51 -1873.21 2276.9 1 1247
1249 2 -348.01 -1872.21 2291.92 1 1248
1250 2 -356.2 -1864.21 2305.92 1 1249
1251 2 -358.09 -1845.21 2346.92 1 1250
1252 2 -383.98 -1825.22 2388.93 1 1251
1253 2 -403.87 -1819.23 2428.94 1 1252
1254 2 -413.85 -1800.23 2501.95 1 1253
1255 2 -421.34 -1798.23 2525.95 1 1254
1256 2 -434.74 -1813.23 2551.95 1 1255
1257 2 -403.22 -1810.25 2587.94 1 1256
1258 2 -400.51 -1812.25 2601.94 1 1257
1259 2 -391.31 -1805.25 2616.93 1 1258
1260 2 -385.4 -1800.25 2645.93 1 1259
1261 2 -376.29 -1806.25 2676.93 1 1260
1262 2 -372.69 -1815.25 2687.93 1 1261
1263 2 -380.39 -1825.25 2703.93 1 1262
1264 2 -365.39 -1824.25 2705.93 1 1263
1265 2 -362.49 -1827.25 2712.93 1 1264
1266 2 -359.58 -1831.26 2720.92 1 1265
1267 2 -366.37 -1841.26 2732.93 1 1266
1268 2 -339.19 -1838.25 2708.92 1 1267
1269 2 -319.99 -1858.25 2659.91 1 1268
1270 2 -377.97 -1847.26 2764.93 1 1267
1271 2 -385.95 -1851.27 2809.93 1 1270
1272 2 -395.35 -1852.27 2821.93 1 1271
1273 2 -393.92 -1882.27 2870.93 1 1272
1274 2 -369.9 -1857.22 2317.93 1 1250
1275 2 -281.91 -1887.21 2281.89 1 1248
1276 2 -276.61 -1893.21 2281.89 1 1275
1277 2 -256.8 -1889.22 2303.89 1 1276
1278 2 -252.4 -1887.22 2309.89 1 1277
1279 2 -238.6 -1890.22 2320.88 1 1278
1280 2 -229.8 -1900.21 2337.88 1 1279
1281 2 -219.19 -1912.21 2356.88 1 1280
1282 2 -178.67 -1912.22 2388.86 1 1281
1283 2 -184.27 -1932.22 2397.86 1 1282
1284 2 -171.87 -1931.22 2410.85 1 1283
1285 2 -164.17 -1936.22 2429.85 1 1284
1286 2 -124.46 -1932.22 2454.84 1 1285
1287 2 -112.66 -1937.22 2471.84 1 1286
1288 2 -81.19 -1936.22 2492.83 1 1287
1289 2 -67.23 -1957.22 2519.82 1 1288
1290 2 -58.13 -1972.22 2541.81 1 1289
1291 2 -50.88 -1981.22 2560.81 1 1290
1292 2 -32.7 -1967.23 2591.81 1 1291
1293 2 -31.8 -1969.23 2600.81 1 1292
1294 2 -12.81 -2006.24 2630.8 1 1293
1295 2 7.38 -2010.24 2652.8 1 1294
1296 2 26.75 -2018.24 2674.79 1 1295
1297 2 29.47 -2014.23 2704.79 1 1296
1298 2 32.13 -2006.23 2745.79 1 1297
1299 2 47.81 -1993.24 2776.79 1 1298
1300 2 14.73 -2004.26 2820.79 1 1299
1301 2 20.99 -2009.26 2861.79 1 1300
1302 2 -5.35 -2014.26 2905.8 1 1301
1303 2 -28.88 -2015.26 2939.8 1 1302
1304 2 -12.77 -2045.26 2969.8 1 1303
1305 2 -7.09 -2063.27 2988.8 1 1304
1306 2 -0.09 -2076.27 2999.78 1 1305
1307 2 -29.12 -2015.26 2946.8 1 1303
1308 2 -60.24 -2032.27 2997.81 1 1307
1309 2 -188.37 -1948.22 2419.86 1 1284
1310 2 -183.85 -1967.22 2442.86 1 1309
1311 2 -203.95 -1990.22 2453.86 1 1310
1312 2 -210.85 -2008.22 2462.86 1 1311
1313 2 -210.53 -2011.23 2502.86 1 1312
1314 2 -233.33 -2017.24 2529.87 1 1313
1315 2 -260.82 -2020.24 2560.87 1 1314
1316 2 -300.31 -2040.23 2582.89 1 1315
1317 2 -310.92 -2054.23 2583.89 1 1316
1318 2 -302.4 -2060.24 2617.88 1 1317
1319 2 -180.96 -1950.22 2407.86 1 1309
1320 2 -200.77 -1984.21 2398.86 1 1319
1321 2 -300.51 -1885.21 2272.9 1 1247
1322 2 -295.21 -1899.21 2276.9 1 1321
1323 2 -292.01 -1908.21 2274.89 1 1322
1324 2 -305.7 -1947.21 2278.9 1 1323
1325 2 -319.71 -1979.21 2274.9 1 1324
1326 2 -332.31 -2020.21 2280.9 1 1325
1327 2 -345.01 -2041.21 2290.9 1 1326
1328 2 -350.2 -2074.21 2288.9 1 1327
1329 2 -296.51 -1932.21 2297.9 1 1323
1330 2 -622.29 -1742.2 2037.01 1 1229
1331 2 -632.59 -1743.2 2044.02 1 1330
1332 2 -629.69 -1743.2 2057.02 1 1331
1333 2 -638.88 -1754.21 2080.02 1 1332
1334 2 -635.88 -1757.21 2100.02 1 1333
1335 2 -641.67 -1760.21 2127.02 1 1334
1336 2 -652.35 -1759.21 2152.02 1 1335
1337 2 -649.15 -1757.21 2185.02 1 1336
1338 2 -659.24 -1762.21 2210.02 1 1337
1339 2 -660.54 -1760.22 2223.02 1 1338
1340 2 -669.53 -1762.22 2237.03 1 1339
1341 2 -672.63 -1758.23 2253.03 1 1340
1342 2 -686.62 -1751.23 2273.04 1 1341
1343 2 -690.42 -1741.23 2287.04 1 1342
1344 2 -691 -1735.23 2301.04 1 1343
1345 2 -702.4 -1735.23 2317.05 1 1344
1346 2 -708.99 -1741.23 2343.05 1 1345
1347 2 -715.89 -1730.23 2361.05 1 1346
1348 2 -732.48 -1716.23 2387.05 1 1347
1349 2 -733.18 -1711.24 2401.05 1 1348
1350 2 -745.57 -1708.25 2431.06 1 1349
1351 2 -770.95 -1711.25 2472.06 1 1350
1352 2 -791.54 -1716.25 2503.07 1 1351
1353 2 -812.54 -1732.25 2525.08 1 1352
1354 2 -835.83 -1742.26 2544.09 1 1353
1355 2 -846.43 -1758.26 2572.09 1 1354
1356 2 -857.83 -1768.26 2580.09 1 1355
1357 2 -854.61 -1770.26 2595.09 1 1356
1358 2 -865.51 -1772.26 2610.09 1 1357
1359 2 -872.51 -1761.27 2622.1 1 1358
1360 2 -893.9 -1758.27 2637.1 1 1359
1361 2 -898.9 -1749.27 2648.1 1 1360
1362 2 -901.19 -1744.27 2664.11 1 1361
1363 2 -912.19 -1745.27 2670.11 1 1362
1364 2 -912.29 -1738.28 2692.11 1 1363
1365 2 -926.48 -1735.28 2708.11 1 1364
1366 2 -931.58 -1732.28 2717.11 1 1365
1367 2 -941.17 -1732.28 2743.11 1 1366
1368 2 -941.78 -1729.28 2752.11 1 1367
1369 2 -945.98 -1722.28 2761.11 1 1368
1370 2 -947.68 -1719.28 2762.11 1 1369
1371 2 -955.48 -1717.28 2759.12 1 1370
1372 2 -960.98 -1711.28 2762.12 1 1371
1373 2 -972.07 -1698.27 2768.12 1 1372
1374 2 -980.57 -1687.27 2769.13 1 1373
1375 2 -993.87 -1682.27 2767.13 1 1374
1376 2 -1001.07 -1674.28 2766.13 1 1375
1377 2 -1019.07 -1658.28 2758.14 1 1376
1378 2 -1030.07 -1625.28 2760.15 1 1377
1379 2 -1034.07 -1615.28 2761.15 1 1378
1380 2 -1035.08 -1582.28 2744.16 1 1379
1381 2 -1044.08 -1570.28 2740.16 1 1380
1382 2 -1049.08 -1544.28 2729.16 1 1381
1383 2 -1071.09 -1526.28 2716.17 1 1382
1384 2 -1099.09 -1503.27 2708.18 1 1383
1385 2 -1105.1 -1476.27 2701.19 1 1384
1386 2 -1115.1 -1455.27 2703.19 1 1385
1387 2 -1124.1 -1442.27 2701.19 1 1386
1388 2 -1142.1 -1402.28 2700.2 1 1387
1389 2 -1149.1 -1372.28 2696.21 1 1388
1390 2 -1146.1 -1348.28 2692.21 1 1389
1391 2 -1157.11 -1309.28 2678.22 1 1390
1392 2 -1175.13 -1275.28 2647.22 1 1391
1393 2 -1167.13 -1267.28 2636.22 1 1392
1394 2 -1003.07 -1675.28 2773.13 1 1375
1395 2 -1023.07 -1672.28 2781.14 1 1394
1396 2 -1026.06 -1666.28 2791.14 1 1395
1397 2 -1032.06 -1663.28 2793.14 1 1396
1398 2 -1052.05 -1656.29 2803.15 1 1397
1399 2 -1085.05 -1652.29 2817.16 1 1398
1400 2 -1102.05 -1646.29 2826.17 1 1399
1401 2 -1114.05 -1647.29 2821.17 1 1400
1402 2 -1043.05 -1652.29 2818.14 1 1397
1403 2 -1035.04 -1644.29 2845.14 1 1402
1404 2 -1032.04 -1633.29 2864.14 1 1403
1405 2 -1003.05 -1676.28 2798.13 1 1395
1406 2 -989.05 -1693.29 2839.13 1 1405
1407 2 -953.06 -1724.28 2774.11 1 1369
1408 2 -951.66 -1722.28 2775.11 1 1407
1409 2 -950.16 -1719.28 2777.11 1 1408
1410 2 -943.36 -1711.28 2783.11 1 1409
1411 2 -939.66 -1700.28 2789.13 1 1410
1412 2 -930.36 -1692.28 2800.12 1 1411
1413 2 -918.75 -1680.28 2816.11 1 1412
1414 2 -916.55 -1678.28 2831.11 1 1413
1415 2 -905.04 -1665.28 2854.11 1 1414
1416 2 -909.24 -1663.29 2870.12 1 1415
1417 2 -894.63 -1653.29 2883.11 1 1416
1418 2 -890.32 -1646.3 2909.11 1 1417
1419 2 -878.52 -1635.3 2922.1 1 1418
1420 2 -871.72 -1630.3 2927.1 1 1419
1421 2 -874.43 -1608.3 2932.11 1 1420
1422 2 -868.42 -1601.3 2940.11 1 1421
1423 2 -868.42 -1589.3 2935.11 1 1422
1424 2 -859.82 -1583.29 2944.11 1 1423
1425 2 -858.82 -1573.29 2947.11 1 1424
1426 2 -852.92 -1562.29 2947.11 1 1425
1427 2 -837.12 -1547.29 2957.11 1 1426
1428 2 -827.51 -1526.29 2963.1 1 1427
1429 2 -823.01 -1519.29 2965.1 1 1428
1430 2 -819.41 -1511.29 2968.1 1 1429
1431 2 -811.52 -1494.29 2978.1 1 1430
1432 2 -859.52 -1615.29 2950.1 1 1420
1433 2 -867.22 -1608.29 2959.11 1 1432
1434 2 -851 -1585.29 2983.11 1 1433
1435 2 -849.4 -1575.29 2989.11 1 1434
1436 2 -845.99 -1563.29 3009.11 1 1435
1437 2 -835.69 -1550.29 3025.11 1 1436
1438 2 -829.09 -1544.3 3035.1 1 1437
1439 2 -823.38 -1534.3 3058.1 1 1438
1440 2 -810.47 -1516.3 3075.1 1 1439
1441 2 -791.48 -1497.3 3093.1 1 1440
1442 2 -784.67 -1487.31 3123.1 1 1441
1443 2 -762.56 -1481.31 3144.09 1 1442
1444 2 -750.15 -1461.32 3179.09 1 1443
1445 2 -738.83 -1440.32 3216.09 1 1444
1446 2 -726.83 -1424.31 3237.08 1 1445
1447 2 -725.22 -1417.31 3257.08 1 1446
1448 2 -672.61 -1363.32 3335.07 1 1447
1449 2 -655.59 -1339.33 3391.07 1 1448
1450 2 -651.47 -1320.33 3431.07 1 1449
1451 2 -653.56 -1305.33 3467.07 1 1450
1452 2 -652.37 -1290.33 3483.07 1 1451
1453 2 -658.26 -1283.34 3505.07 1 1452
1454 2 -677.25 -1268.33 3526.08 1 1453
1455 2 -703.95 -1258.34 3552.08 1 1454
1456 2 -912.03 -1655.29 2908.12 1 1416
1457 2 -911.12 -1649.3 2918.12 1 1456
1458 2 -921.22 -1650.3 2939.12 1 1457
1459 2 -924.71 -1646.3 2950.12 1 1458
1460 2 -925.1 -1644.3 2957.12 1 1459
1461 2 -935.3 -1645.3 2963.13 1 1460
1462 2 -948.4 -1647.29 2977.12 1 1461
1463 2 -950.5 -1644.29 2984.12 1 1462
1464 2 -961.3 -1644.29 2983.12 1 1463
1465 2 -964.09 -1644.29 2989.12 1 1464
1466 2 -973.29 -1641.29 3005.13 1 1465
1467 2 -927.69 -1639.3 2996.13 1 1460
1468 2 -927.58 -1638.3 3028.13 1 1467
1469 2 -924.49 -1635.31 3042.13 1 1468
1470 2 -936.29 -1632.31 3055.13 1 1469
1471 2 -931.98 -1626.31 3071.13 1 1470
1472 2 -944.58 -1623.31 3090.13 1 1471
1473 2 -947.27 -1621.31 3102.13 1 1472
1474 2 -946.57 -1616.31 3115.13 1 1473
1475 2 -960.26 -1613.31 3129.13 1 1474
1476 2 -973.96 -1612.31 3136.13 1 1475
1477 2 -980.65 -1606.31 3145.13 1 1476
1478 2 -982.75 -1604.31 3150.13 1 1477
1479 2 -1006.95 -1597.32 3154.15 1 1478
1480 2 -1019.95 -1591.32 3158.15 1 1479
1481 2 -1028.94 -1588.33 3176.15 1 1480
1482 2 -1050.94 -1585.33 3189.16 1 1481
1483 2 -931.88 -1623.31 3092.13 1 1471
1484 2 -921.77 -1616.31 3102.13 1 1483
1485 2 -901.86 -1615.31 3120.12 1 1484
1486 2 -908.16 -1613.31 3136.12 1 1485
1487 2 -890.75 -1613.32 3160.12 1 1486
1488 2 -898.75 -1612.32 3176.12 1 1487
1489 2 -895.04 -1609.32 3194.12 1 1488
1490 2 -952.76 -1723.28 2779.11 1 1407
1491 2 -952.86 -1727.28 2785.11 1 1490
1492 2 -956.96 -1733.28 2787.11 1 1491
1493 2 -946.55 -1739.28 2800.11 1 1492
1494 2 -960.65 -1754.28 2807.11 1 1493
1495 2 -958.45 -1764.28 2811.11 1 1494
1496 2 -965.15 -1782.28 2818.11 1 1495
1497 2 -980.75 -1798.29 2829.11 1 1496
1498 2 -983.04 -1825.29 2841.11 1 1497
1499 2 -984.84 -1846.29 2854.11 1 1498
1500 2 -976.03 -1861.29 2867.11 1 1499
1501 2 -978.13 -1872.29 2872.11 1 1500
1502 2 -968.32 -1895.29 2881.11 1 1501
1503 2 -972.31 -1909.29 2903.11 1 1502
1504 2 -955.76 -1719.28 2789.12 1 1490
1505 2 -956.56 -1718.28 2804.12 1 1504
1506 2 -978.74 -1743.28 2824.12 1 1505
1507 2 -995.84 -1762.29 2852.13 1 1506
1508 2 -993.54 -1765.29 2856.13 1 1507
1509 2 -1005.03 -1770.3 2871.13 1 1508
1510 2 -1012.03 -1779.3 2882.13 1 1509
1511 2 -1037.01 -1799.3 2911.14 1 1510
1512 2 -1053.01 -1811.3 2918.14 1 1511
1513 2 -1065.01 -1820.29 2930.14 1 1512
1514 2 -1083.01 -1828.29 2943.15 1 1513
1515 2 -1100.01 -1832.3 2954.15 1 1514
1516 2 -1120 -1841.3 2970.16 1 1515
1517 2 -1128 -1847.31 2978.16 1 1516
1518 2 -1149 -1862.31 2998.16 1 1517
1519 2 -1147.98 -1868.31 3012.16 1 1518
1520 2 -1166.98 -1876.31 3029.17 1 1519
1521 2 -1176.98 -1880.31 3037.17 1 1520
1522 2 -1188.97 -1884.31 3056.17 1 1521
1523 2 -1196.97 -1888.31 3061.17 1 1522
1524 2 -1209.97 -1888.32 3083.18 1 1523
1525 2 -1218.96 -1883.32 3098.18 1 1524
1526 2 -1227.96 -1881.32 3114.18 1 1525
1527 2 -1232.96 -1874.32 3124.18 1 1526
1528 2 -1236.95 -1867.32 3135.19 1 1527
1529 2 -1251.95 -1857.33 3148.2 1 1528
1530 2 -969.15 -1711.28 2825.12 1 1505
1531 2 -978.25 -1707.29 2845.13 1 1530
1532 2 -979.84 -1702.29 2873.13 1 1531
1533 2 -1001.03 -1694.3 2901.13 1 1532
1534 2 -1010.03 -1694.3 2919.13 1 1533
1535 2 -1007.02 -1684.3 2929.13 1 1534
1536 2 -1009.01 -1681.3 2937.13 1 1535
1537 2 -1014.01 -1671.3 2952.14 1 1536
1538 2 -1013.01 -1689.3 2940.14 1 1534
1539 2 -1027.01 -1691.3 2951.14 1 1538
1540 2 -1023 -1698.3 2968.14 1 1539
1541 2 -1034 -1695.31 2986.14 1 1540
1542 2 -1048 -1694.31 2995.14 1 1541
1543 2 -1053.99 -1690.31 3022.15 1 1542
1544 2 -1063.98 -1687.31 3050.15 1 1543
1545 2 -1068.98 -1683.31 3064.15 1 1544
1546 2 -1088.97 -1677.31 3087.16 1 1545
1547 2 -1085.97 -1658.31 3085.16 1 1546
1548 2 -1071.98 -1636.31 3080.16 1 1547
1549 2 -1067.98 -1616.31 3076.16 1 1548
1550 2 -1069.98 -1600.31 3061.16 1 1549
1551 2 -1076.98 -1583.31 3057.17 1 1550
1552 2 -1094.99 -1571.31 3045.17 1 1551
1553 2 -1094.99 -1556.31 3032.17 1 1552
1554 2 -1100.99 -1545.31 3011.17 1 1553
1555 2 -1094.01 -1525.31 2992.17 1 1554
1556 2 -1089.02 -1489.29 2946.18 1 1555
1557 2 -1098.03 -1474.29 2927.19 1 1556
1558 2 -1106.04 -1449.29 2892.19 1 1557
1559 2 -1110.05 -1435.29 2868.19 1 1558
1560 2 -1126.06 -1419.3 2845.19 1 1559
1561 2 -1121.06 -1404.29 2817.19 1 1560
1562 2 -1091.96 -1676.31 3108.17 1 1546
1563 2 -1097.95 -1680.31 3127.17 1 1562
1564 2 -1096.95 -1682.32 3140.17 1 1563
1565 2 -1108.94 -1679.32 3162.17 1 1564
1566 2 -1114.94 -1678.32 3180.17 1 1565
1567 2 -1114.93 -1669.32 3211.17 1 1566
1568 2 -1125.92 -1667.33 3237.17 1 1567
1569 2 -1142.91 -1666.33 3253.18 1 1568
1570 2 -1152.91 -1654.33 3281.18 1 1569
1571 2 -1153.91 -1653.34 3293.18 1 1570
1572 2 -1166.9 -1655.34 3317.19 1 1571
1573 2 -1174.9 -1651.34 3337.19 1 1572
1574 2 -1192.88 -1639.34 3386.19 1 1573
1575 2 -1214.88 -1631.34 3410.21 1 1574
1576 2 -1223.86 -1627.34 3428.21 1 1575
1577 2 -1236.86 -1625.34 3428.21 1 1576
1578 2 -1257.86 -1616.36 3439.22 1 1577
1579 2 -1266.85 -1600.36 3461.22 1 1578
1580 2 -1270.85 -1591.36 3468.22 1 1579
1581 2 -1285.84 -1576.36 3486.23 1 1580
1582 2 -1312.84 -1540.36 3528.25 1 1581
1583 2 -1330.83 -1521.36 3556.25 1 1582
1584 2 -958.67 -1732.28 2746.11 1 1367
1585 2 -970.47 -1735.27 2753.12 1 1584
1586 2 -981.06 -1739.27 2756.13 1 1585
1587 2 -996.46 -1736.27 2770.13 1 1586
1588 2 -1017.06 -1731.28 2795.13 1 1587
1589 2 -1058.05 -1729.29 2816.15 1 1588
1590 2 -1084.05 -1727.29 2839.15 1 1589
1591 2 -1102.05 -1724.29 2850.16 1 1590
1592 2 -1125.04 -1720.29 2864.17 1 1591
1593 2 -1134.04 -1712.3 2866.17 1 1592
1594 2 -1179.03 -1699.3 2884.19 1 1593
1595 2 -1197.03 -1694.29 2891.19 1 1594
1596 2 -1218.03 -1682.3 2898.2 1 1595
1597 2 -1227.03 -1675.3 2906.21 1 1596
1598 2 -1247.03 -1675.3 2914.21 1 1597
1599 2 -1271.02 -1663.31 2935.22 1 1598
1600 2 -1292.01 -1659.31 2950.23 1 1599
1601 2 -1315 -1651.31 2970.23 1 1600
1602 2 -1353 -1649.31 2986.24 1 1601
1603 2 -1381.99 -1645.33 3000.26 1 1602
1604 2 -1409.99 -1635.32 3013.27 1 1603
1605 2 -1431.99 -1633.32 3031.27 1 1604
1606 2 -1444.99 -1625.32 3052.28 1 1605
1607 2 -1462.99 -1625.32 3058.28 1 1606
1608 2 -1480.99 -1623.32 3055.29 1 1607
1609 2 -1506.99 -1631.32 3059.3 1 1608
1610 2 -1555.98 -1633.33 3067.31 1 1609
1611 2 -1592.98 -1636.33 3075.32 1 1610
1612 2 -1650.97 -1644.34 3083.34 1 1611
1613 2 -1664.97 -1647.34 3100.35 1 1612
1614 2 -1699.95 -1649.34 3120.36 1 1613
1615 2 -1756.95 -1667.34 3136.37 1 1614
1616 2 -1759.95 -1672.33 3135.37 1 1615
1617 2 -1232.03 -1661.3 2912.21 1 1598
1618 2 -1225.03 -1646.3 2907.21 1 1617
1619 2 -1231.03 -1631.3 2895.21 1 1618
1620 2 -1222.03 -1619.3 2889.21 1 1619
1621 2 -1218.04 -1595.3 2892.21 1 1620
1622 2 -938.49 -1753.27 2673.1 1 1363
1623 2 -949.89 -1750.27 2679.11 1 1622
1624 2 -969.49 -1744.27 2681.11 1 1623
1625 2 -981.99 -1736.27 2668.13 1 1624
1626 2 -988.3 -1716.27 2655.13 1 1625
1627 2 -1004.11 -1694.28 2637.13 1 1626
1628 2 -1015.12 -1675.28 2625.14 1 1627
1629 2 -1023.12 -1660.28 2620.14 1 1628
1630 2 -1087.12 -1584.27 2595.17 1 1629
1631 2 -1096.13 -1570.27 2598.17 1 1630
1632 2 -1010.09 -1744.28 2682.13 1 1624
1633 2 -1051.09 -1741.28 2677.14 1 1632
1634 2 -1058.09 -1733.28 2676.14 1 1633
1635 2 -1062.09 -1727.28 2677.15 1 1634
1636 2 -1064.09 -1725.28 2675.15 1 1635
1637 2 -1060.09 -1724.28 2682.15 1 1636
1638 2 -1074.09 -1721.28 2692.15 1 1637
1639 2 -1086.09 -1715.27 2703.15 1 1638
1640 2 -1077.09 -1705.28 2718.15 1 1639
1641 2 -1067.08 -1687.28 2746.15 1 1640
1642 2 -1047.07 -1676.28 2778.14 1 1641
1643 2 -1028.05 -1666.29 2805.14 1 1642
1644 2 -1035.05 -1665.29 2814.14 1 1643
1645 2 -1025.04 -1647.29 2859.14 1 1644
1646 2 -1082.1 -1704.27 2670.15 1 1636
1647 2 -1101.1 -1700.27 2675.17 1 1646
1648 2 -1118.1 -1684.27 2668.17 1 1647
1649 2 -1127.1 -1674.27 2650.17 1 1648
1650 2 -1150.1 -1666.28 2644.18 1 1649
1651 2 -1170.12 -1661.28 2629.19 1 1650
1652 2 -1080.1 -1685.27 2663.16 1 1646
1653 2 -1065.1 -1657.27 2641.16 1 1652
1654 2 -1050.12 -1645.27 2627.16 1 1653
1655 2 -1048.12 -1618.27 2616.16 1 1654
1656 2 -1027.12 -1593.27 2611.15 1 1655
1657 2 -1019.13 -1575.27 2608.15 1 1656
1658 2 -1008.13 -1563.27 2604.15 1 1657
1659 2 -1004.13 -1553.27 2592.15 1 1658
1660 2 -1003.13 -1548.27 2588.15 1 1659
1661 2 -1114.09 -1742.27 2678.16 1 1633
1662 2 -1143.09 -1740.28 2682.18 1 1661
1663 2 -1149.09 -1739.28 2685.18 1 1662
1664 2 -1179.09 -1737.28 2692.19 1 1663
1665 2 -1215.09 -1736.28 2695.19 1 1664
1666 2 -1256.08 -1740.28 2708.2 1 1665
1667 2 -1284.08 -1742.29 2709.22 1 1666
1668 2 -1323.08 -1752.29 2713.23 1 1667
1669 2 -1341.08 -1757.29 2725.24 1 1668
1670 2 -1369.08 -1761.29 2725.24 1 1669
1671 2 -1408.08 -1772.29 2714.25 1 1670
1672 2 -1417.08 -1774.29 2721.25 1 1671
1673 2 -1447.08 -1782.29 2725.26 1 1672
1674 2 -1460.08 -1790.29 2727.26 1 1673
1675 2 -1468.09 -1797.29 2707.27 1 1674
1676 2 -1487.09 -1812.29 2680.27 1 1675
1677 2 -1503.1 -1820.28 2670.28 1 1676
1678 2 -1477.07 -1813.3 2749.27 1 1674
1679 2 -1501.06 -1836.3 2767.27 1 1678
1680 2 -1521.06 -1859.31 2775.28 1 1679
1681 2 -1443.06 -1762.29 2748.26 1 1673
1682 2 -1460.06 -1763.3 2756.28 1 1681
1683 2 -1464.06 -1758.3 2770.28 1 1682
1684 2 -1470.05 -1741.3 2786.28 1 1683
1685 2 -1482.05 -1734.3 2792.28 1 1684
1686 2 -1485.06 -1726.3 2805.28 1 1685
1687 2 -1496.05 -1711.3 2819.29 1 1686
1688 2 -1515.05 -1691.31 2835.29 1 1687
1689 2 -1519.04 -1674.31 2853.29 1 1688
1690 2 -1521.04 -1663.31 2862.29 1 1689
1691 2 -1514.03 -1665.31 2880.29 1 1690
1692 2 -1515.03 -1653.31 2898.3 1 1691
1693 2 -1518.02 -1632.32 2928.3 1 1692
1694 2 -1522.01 -1624.32 2946.31 1 1693
1695 2 -1524.02 -1624.32 2954.31 1 1694
1696 2 -1529 -1627.32 2960.31 1 1695
1697 2 -1560 -1639.32 2968.32 1 1696
1698 2 -1581 -1647.32 2969.32 1 1697
1699 2 -1513.02 -1612.33 2965.3 1 1694
1700 2 -1521 -1607.33 2981.31 1 1699
1701 2 -1513 -1587.33 2996.31 1 1700
1702 2 -1505.99 -1576.32 3018.3 1 1701
1703 2 -1516.99 -1570.33 3032.31 1 1702
1704 2 -1519.98 -1568.33 3050.31 1 1703
1705 2 -1523.98 -1566.33 3060.31 1 1704
1706 2 -1519.98 -1568.33 3078.31 1 1705
1707 2 -1528.97 -1561.34 3099.31 1 1706
1708 2 -1528.97 -1555.34 3116.31 1 1707
1709 2 -1533.96 -1556.34 3135.31 1 1708
1710 2 -1518.06 -1699.31 2803.29 1 1687
1711 2 -1537.06 -1683.31 2799.3 1 1710
1712 2 -1436.08 -1769.29 2727.26 1 1672
1713 2 -1216.08 -1730.28 2694.19 1 1665
1714 2 -1219.09 -1731.27 2682.2 1 1713
1715 2 -1151.1 -1748.28 2655.18 1 1663
1716 2 -1156.1 -1751.28 2642.18 1 1715
1717 2 -1161.1 -1752.28 2623.18 1 1716
1718 2 -1180.12 -1754.27 2590.18 1 1717
1719 2 -1207.14 -1760.27 2538.19 1 1718
1720 2 -1230.15 -1762.27 2503.2 1 1719
1721 2 -1276.16 -1753.26 2452.21 1 1720
1722 2 -1302.18 -1732.26 2403.23 1 1721
1723 2 -1319.18 -1720.26 2379.23 1 1722
1724 2 -1344.19 -1714.25 2344.24 1 1723
1725 2 -883.1 -1778.27 2632.1 1 1358
1726 2 -875.2 -1774.27 2649.1 1 1725
1727 2 -885.1 -1773.27 2665.1 1 1726
1728 2 -893.59 -1774.27 2678.1 1 1727
1729 2 -901.89 -1778.28 2697.1 1 1728
1730 2 -891.98 -1780.28 2712.1 1 1729
1731 2 -897.88 -1783.28 2723.1 1 1730
1732 2 -910.97 -1783.28 2740.11 1 1731
1733 2 -909.36 -1786.28 2753.11 1 1732
1734 2 -920.76 -1780.28 2786.11 1 1733
1735 2 -935.05 -1774.28 2806.11 1 1734
1736 2 -936.45 -1771.28 2823.1 1 1735
1737 2 -945.24 -1772.28 2832.11 1 1736
1738 2 -957.34 -1769.29 2845.11 1 1737
1739 2 -984.03 -1774.29 2876.11 1 1738
1740 2 -997.92 -1771.3 2897.13 1 1739
1741 2 -998.12 -1771.3 2902.13 1 1740
1742 2 -1018.01 -1762.3 2921.13 1 1741
1743 2 -1025.01 -1752.3 2957.14 1 1742
1744 2 -1037.01 -1749.3 2967.14 1 1743
1745 2 -1040 -1739.31 2988.14 1 1744
1746 2 -1054 -1736.31 3010.14 1 1745
1747 2 -1069.99 -1723.31 3043.15 1 1746
1748 2 -1069.99 -1721.31 3048.15 1 1747
1749 2 -1078.98 -1713.31 3073.15 1 1748
1750 2 -1077.96 -1711.31 3086.15 1 1749
1751 2 -1082.96 -1706.31 3093.15 1 1750
1752 2 -1090.96 -1698.31 3120.16 1 1751
1753 2 -1101.95 -1693.32 3144.17 1 1752
1754 2 -1108.95 -1694.32 3155.17 1 1753
1755 2 -1118.94 -1692.32 3180.17 1 1754
1756 2 -1127.93 -1688.33 3208.17 1 1755
1757 2 -1128.93 -1677.33 3232.18 1 1756
1758 2 -1139.91 -1675.33 3256.18 1 1757
1759 2 -1153.91 -1661.33 3281.18 1 1758
1760 2 -1153.91 -1658.33 3288.18 1 1759
1761 2 -1162.9 -1654.34 3320.18 1 1760
1762 2 -1169.89 -1653.34 3350.19 1 1761
1763 2 -1166.89 -1646.34 3371.19 1 1762
1764 2 -1164.88 -1642.35 3413.19 1 1763
1765 2 -1174.86 -1625.35 3453.19 1 1764
1766 2 -1177.85 -1622.36 3478.19 1 1765
1767 2 -1169.84 -1634.36 3528.19 1 1766
1768 2 -1152.83 -1640.36 3550.18 1 1767
1769 2 -1158.81 -1644.36 3596.18 1 1768
1770 2 -1150.91 -1699.33 3276.18 1 1758
1771 2 -1148.9 -1716.34 3293.18 1 1770
1772 2 -1159.9 -1733.34 3311.18 1 1771
1773 2 -1170.9 -1746.34 3326.18 1 1772
1774 2 -1169.89 -1760.34 3345.18 1 1773
1775 2 -1178.89 -1765.34 3357.18 1 1774
1776 2 -1181.88 -1783.34 3373.18 1 1775
1777 2 -1193.87 -1794.34 3386.19 1 1776
1778 2 -1202.86 -1812.34 3397.19 1 1777
1779 2 -1224.86 -1843.34 3409.19 1 1778
1780 2 -1280.86 -1858.36 3411.21 1 1779
1781 2 -1315.86 -1873.36 3411.21 1 1780
1782 2 -1116.93 -1676.32 3225.17 1 1756
1783 2 -1104.92 -1664.32 3247.17 1 1782
1784 2 -1106.91 -1654.33 3275.17 1 1783
1785 2 -1117.91 -1639.33 3302.17 1 1784
1786 2 -1123.89 -1607.35 3336.18 1 1785
1787 2 -1126.89 -1594.35 3358.18 1 1786
1788 2 -1134.88 -1572.35 3385.18 1 1787
1789 2 -1132.87 -1539.35 3458.19 1 1788
1790 2 -1062.97 -1737.31 3068.15 1 1748
1791 2 -1042.01 -1752.3 2957.14 1 1744
1792 2 -1063.01 -1746.3 2950.15 1 1791
1793 2 -1096.01 -1737.29 2945.15 1 1792
1794 2 -1132.01 -1701.31 2935.17 1 1793
1795 2 -1158.02 -1666.31 2923.18 1 1794
1796 2 -1177.02 -1635.31 2909.19 1 1795
1797 2 -911.94 -1777.28 2851.11 1 1737
1798 2 -910.03 -1785.29 2869.11 1 1797
1799 2 -873.62 -1824.3 2912.09 1 1798
1800 2 -860.01 -1853.29 2930.08 1 1799
1801 2 -853.8 -1882.29 2948.08 1 1800
1802 2 -844.8 -1913.29 2974.07 1 1801
1803 2 -826.38 -1947.29 3014.06 1 1802
1804 2 -819.18 -1961.3 3028.06 1 1803
1805 2 -832.77 -1998.3 3049.06 1 1804
1806 2 -805.17 -2017.3 3083.05 1 1805
1807 2 -835.94 -2046.31 3129.06 1 1806
1808 2 -838.63 -2051.31 3146.06 1 1807
1809 2 -832.83 -2045.31 3154.06 1 1808
1810 2 -861.83 -2071.31 3181.06 1 1809
1811 2 -880.31 -2088.32 3223.07 1 1810
1812 2 -810.44 -2027.31 3136.05 1 1806
1813 2 -792.43 -2025.31 3181.05 1 1812
1814 2 -751.4 -2021.32 3251.04 1 1813
1815 2 -732.99 -2025.31 3299.02 1 1814
1816 2 -724.89 -2033.31 3317.02 1 1815
1817 2 -726.97 -2042.33 3377.02 1 1816
1818 2 -912.66 -1801.28 2764.11 1 1733
1819 2 -903.56 -1815.28 2773.1 1 1818
1820 2 -909.56 -1835.28 2793.1 1 1819
1821 2 -897.15 -1844.28 2810.09 1 1820
1822 2 -881.15 -1864.28 2844.09 1 1821
1823 2 -883.02 -1876.28 2865.09 1 1822
1824 2 -878.12 -1909.3 2901.08 1 1823
1825 2 -878.01 -1928.3 2930.08 1 1824
1826 2 -881 -1945.3 2953.08 1 1825
1827 2 -886.49 -1960.3 2983.08 1 1826
1828 2 -896.69 -1986.3 2999.08 1 1827
1829 2 -902.77 -2021.3 3033.08 1 1828
1830 2 -914.47 -2049.31 3044.07 1 1829
1831 2 -917.67 -2076.31 3055.07 1 1830
1832 2 -901.28 -1971.3 3008.09 1 1827
1833 2 -917.08 -1971.3 3032.08 1 1832
1834 2 -938.57 -2001.31 3059.08 1 1833
1835 2 -966.94 -2032.31 3097.09 1 1834
1836 2 -984.34 -2042.31 3113.09 1 1835
1837 2 -994.34 -2047.32 3117.1 1 1836
1838 2 -1028.94 -2076.32 3134.1 1 1837
1839 2 -1034.94 -2086.31 3137.11 1 1838
1840 2 -1020.93 -2110.32 3156.1 1 1839
1841 2 -900.04 -1852.28 2859.09 1 1821
1842 2 -829.25 -1726.24 2482.09 1 1351
1843 2 -842.15 -1730.24 2484.09 1 1842
1844 2 -890.55 -1737.25 2469.1 1 1843
1845 2 -918.55 -1749.25 2469.11 1 1844
1846 2 -943.25 -1749.25 2464.11 1 1845
1847 2 -956.65 -1752.24 2462.11 1 1846
1848 2 -959.75 -1756.25 2464.11 1 1847
1849 2 -969.36 -1755.25 2459.11 1 1848
1850 2 -961.95 -1749.25 2466.11 1 1849
1851 2 -962.95 -1745.25 2468.11 1 1850
1852 2 -976.15 -1740.25 2471.12 1 1851
1853 2 -982.45 -1732.25 2480.13 1 1852
1854 2 -983.35 -1731.25 2485.13 1 1853
1855 2 -1006.15 -1752.26 2495.13 1 1852
1856 2 -947.35 -1738.25 2469.11 1 1851
1857 2 -930.05 -1734.25 2473.11 1 1856
1858 2 -918.35 -1720.25 2473.11 1 1857
1859 2 -910.35 -1707.25 2474.11 1 1858
1860 2 -876.37 -1672.25 2469.1 1 1859
1861 2 -863.07 -1657.24 2471.1 1 1860
1862 2 -849.87 -1653.24 2471.1 1 1861
1863 2 -766.67 -1609.25 2456.08 1 1862
1864 2 -893.85 -1727.25 2483.1 1 1857
1865 2 -864.85 -1721.24 2486.1 1 1864
1866 2 -851.05 -1712.24 2490.09 1 1865
1867 2 -831.85 -1715.24 2487.09 1 1866
1868 2 -974.16 -1754.25 2455.11 1 1849
1869 2 -980.96 -1755.24 2448.11 1 1868
1870 2 -985.06 -1755.24 2447.13 1 1869
1871 2 -1008.17 -1761.26 2438.13 1 1870
1872 2 -1028.17 -1759.26 2433.14 1 1871
1873 2 -1047.17 -1757.26 2431.14 1 1872
1874 2 -1071.17 -1759.26 2431.15 1 1873
1875 2 -1098.17 -1764.25 2427.15 1 1874
1876 2 -1115.17 -1766.25 2428.16 1 1875
1877 2 -1162.17 -1766.26 2431.18 1 1876
1878 2 -1203.18 -1782.26 2425.19 1 1877
1879 2 -1249.18 -1792.25 2414.2 1 1878
1880 2 -1280.19 -1815.26 2395.21 1 1879
1881 2 -1321.18 -1840.26 2381.22 1 1880
1882 2 -1350.19 -1869.25 2369.22 1 1881
1883 2 -1375.19 -1901.25 2356.23 1 1882
1884 2 -1416.2 -1929.26 2346.24 1 1883
1885 2 -1439.2 -1962.26 2309.24 1 1884
1886 2 -1445.2 -1966.25 2304.24 1 1885
1887 2 -1448.2 -1968.25 2303.24 1 1886
1888 2 -1460.2 -1975.25 2297.25 1 1887
1889 2 -1475.21 -1987.25 2288.25 1 1888
1890 2 -1525.21 -2009.26 2269.27 1 1889
1891 2 -1573.21 -2026.25 2262.28 1 1890
1892 2 -1625.22 -2050.25 2252.3 1 1891
1893 2 -1669.21 -2068.26 2250.31 1 1892
1894 2 -1692.21 -2080.25 2241.31 1 1893
1895 2 -1712.21 -2086.26 2245.32 1 1894
1896 2 -1750.21 -2109.26 2243.34 1 1895
1897 2 -1766.22 -2112.26 2241.34 1 1896
1898 2 -1309.18 -1812.26 2402.22 1 1879
1899 2 -1327.19 -1815.26 2392.22 1 1898
1900 2 -1001.15 -1733.25 2463.13 1 1870
1901 2 -990.34 -1710.25 2490.13 1 1900
1902 2 -987.75 -1697.25 2520.13 1 1901
1903 2 -980.34 -1676.26 2553.13 1 1902
1904 2 -987.03 -1669.26 2578.13 1 1903
1905 2 -981.52 -1649.26 2606.13 1 1904
1906 2 -981.62 -1643.26 2627.13 1 1905
1907 2 -987.6 -1637.27 2654.13 1 1906
1908 2 -956.98 -1618.27 2703.12 1 1907
1909 2 -954.87 -1608.28 2743.12 1 1908
1910 2 -952.97 -1595.28 2779.12 1 1909
1911 2 -938.37 -1589.28 2795.13 1 1910
1912 2 -934.06 -1582.28 2825.13 1 1911
1913 2 -932.15 -1575.28 2845.13 1 1912
1914 2 -946.44 -1567.29 2867.13 1 1913
1915 2 -950.03 -1557.29 2890.13 1 1914
1916 2 -949.53 -1552.29 2913.13 1 1915
1917 2 -958.92 -1546.29 2939.13 1 1916
1918 2 -959.31 -1537.29 2984.14 1 1917
1919 2 -975.09 -1530.29 3004.14 1 1918
1920 2 -979.09 -1519.3 3012.14 1 1919
1921 2 -990.28 -1510.3 3041.15 1 1920
1922 2 -1013.98 -1498.31 3071.15 1 1921
1923 2 -1017.97 -1486.32 3114.15 1 1922
1924 2 -1023.97 -1487.32 3132.16 1 1923
1925 2 -1027.96 -1493.32 3146.16 1 1924
1926 2 -1028.96 -1495.32 3156.16 1 1925
1927 2 -1035.95 -1492.33 3178.16 1 1926
1928 2 -937.44 -1550.29 2870.13 1 1914
1929 2 -932.74 -1542.29 2870.13 1 1928
1930 2 -956.03 -1638.26 2577.12 1 1903
1931 2 -965.66 -1744.24 2458.11 1 1868
1932 2 -950.45 -1735.24 2467.11 1 1931
1933 2 -948.45 -1726.26 2469.11 1 1932
1934 2 -940.55 -1713.26 2475.12 1 1933
1935 2 -931.66 -1695.26 2485.11 1 1934
1936 2 -913.05 -1660.26 2507.12 1 1935
1937 2 -921.74 -1621.26 2534.12 1 1936
1938 2 -954.06 -1704.24 2452.12 1 1933
1939 2 -957.46 -1761.24 2460.11 1 1848
1940 2 -970.36 -1800.24 2442.11 1 1939
1941 2 -958.36 -1807.24 2438.11 1 1940
1942 2 -945.86 -1828.24 2432.1 1 1941
1943 2 -942.16 -1843.24 2425.1 1 1942
1944 2 -932.57 -1860.24 2411.1 1 1943
1945 2 -869.17 -1930.24 2412.08 1 1944
1946 2 -816.86 -1985.24 2417.05 1 1945
1947 2 -796.36 -1997.24 2419.05 1 1946
1948 2 -757.17 -1997.25 2409.04 1 1947
1949 2 -925.76 -1758.25 2461.11 1 1845
1950 2 -922.56 -1764.25 2451.11 1 1949
1951 2 -929.76 -1790.25 2435.11 1 1950
1952 2 -932.78 -1791.24 2425.11 1 1951
1953 2 -938.48 -1790.24 2410.1 1 1952
1954 2 -958.19 -1810.24 2368.11 1 1953
1955 2 -945.98 -1801.24 2421.1 1 1952
1956 2 -957.87 -1804.24 2422.11 1 1955
1957 2 -926.37 -1804.25 2431.11 1 1951
1958 2 -928.76 -1766.25 2442.11 1 1950
1959 2 -935.47 -1773.24 2429.1 1 1958
1960 2 -944.68 -1765.24 2402.11 1 1959
1961 2 -938.39 -1764.24 2382.1 1 1960
1962 2 -953.79 -1768.24 2352.11 1 1961
1963 2 -959.1 -1777.24 2323.11 1 1962
1964 2 -962.6 -1780.24 2312.11 1 1963
1965 2 -898.31 -1716.09 699.21 1 189
1966 2 -890.71 -1737.08 689.4 1 1965
1967 2 -880.41 -1777.08 673.8 1 1966
1968 2 -893.92 -1822.08 643.3 1 1967
1969 2 -892.62 -1835.08 633.79 1 1968
1970 2 -913.62 -1883.08 606.59 1 1969
1971 2 -911.12 -1895.08 601.09 1 1970
1972 2 -905.53 -1919.08 589.29 1 1971
1973 2 -898.24 -1944.07 567.09 1 1972
1974 2 -908.55 -1971.07 538.09 1 1973
1975 2 -889.04 -1988.06 522.88 1 1974
1976 2 -842.65 -2025.07 505.86 1 1975
1977 2 -824.45 -2037.07 492.55 1 1976
1978 2 -804.46 -2051.06 471.05 1 1977
1979 2 -794.36 -2079.06 460.64 1 1978
1980 2 -798.78 -2089.06 446.85 1 1979
1981 2 -787.17 -2107.06 430.33 1 1980
1982 2 -749.58 -2135.05 409.82 1 1981
1983 2 -725.39 -2160.05 388.61 1 1982
1984 2 -701.19 -2189.05 379.5 1 1983
1985 2 -685.09 -2204.05 367.89 1 1984
1986 2 -666.9 -2219.04 352.09 1 1985
1987 2 -652.4 -2249.04 334.88 1 1986
1988 2 -632 -2264.03 325.47 1 1987
1989 2 -587.9 -2304.04 322.95 1 1988
1990 2 -567.2 -2352.04 304.85 1 1989
1991 2 -572 -2378.04 312.04 1 1990
1992 2 -566.99 -2408.04 321.43 1 1991
1993 2 -583.89 -2467.04 330.04 1 1992
1994 2 -599.78 -2549.04 372.24 1 1993
1995 2 -626.16 -2623.04 385.54 1 1994
1996 2 -619.86 -2659.04 386.33 1 1995
1997 2 -633.27 -2705.04 380.83 1 1996
1998 2 -650.66 -2746.04 372.93 1 1997
1999 2 -683.66 -2788.05 373.94 1 1998
2000 2 -711.36 -2822.05 380.45 1 1999
2001 2 -721.77 -2833.05 378.25 1 2000
2002 2 -732.67 -2847.05 375.05 1 2001
2003 2 -739.57 -2865.05 378.75 1 2002
2004 2 -760.06 -2890.05 382.55 1 2003
2005 2 -766.36 -2901.05 387.36 1 2004
2006 2 -779.75 -2929.06 393.76 1 2005
2007 2 -806.85 -2948.05 403.56 1 2006
2008 2 -819.15 -2958.05 412.47 1 2007
2009 2 -851.74 -2991.05 429.06 1 2008
2010 2 -907.03 -3038.07 441.58 1 2009
2011 2 -915.63 -3061.07 442.78 1 2010
2012 2 -934.34 -3076.07 444.48 1 2011
2013 2 -944.24 -3085.07 447.18 1 2012
2014 2 -956.93 -3103.07 453.89 1 2013
2015 2 -974.63 -3122.06 457.49 1 2014
2016 2 -1005.72 -3145.06 457.1 1 2015
2017 2 -1015.72 -3168.06 455.9 1 2016
2018 2 -1026.72 -3187.07 459.9 1 2017
2019 2 -730.85 -2878.05 399.25 1 2003
2020 2 -728.44 -2886.05 404.55 1 2019
2021 2 -640.76 -2773.04 373.73 1 1998
2022 2 -648.57 -2791.04 364.33 1 2021
2023 2 -653.57 -2819.04 360.93 1 2022
2024 2 -662.67 -2835.04 359.63 1 2023
2025 2 -668.47 -2847.04 354.63 1 2024
2026 2 -677.57 -2870.04 348.23 1 2025
2027 2 -674.97 -2887.04 344.52 1 2026
2028 2 -682.77 -2919.04 337.12 1 2027
2029 2 -697.07 -2953.04 335.43 1 2028
2030 2 -710.78 -2984.04 325.43 1 2029
2031 2 -734.98 -3062.04 317.73 1 2030
2032 2 -775.76 -3136.04 304.04 1 2031
2033 2 -810.07 -3208.04 291.73 1 2032
2034 2 -809.88 -3215.04 274.73 1 2033
2035 2 -794.29 -3242.04 236.73 1 2034
2036 2 -769.61 -3286.03 170.82 1 2035
2037 2 -812.67 -3216.05 298.04 1 2033
2038 2 -820.17 -3228.05 294.64 1 2037
2039 2 -820.47 -3233.05 292.64 1 2038
2040 2 -832.07 -3253.05 289.54 1 2039
2041 2 -850.48 -3314.05 272.23 1 2040
2042 2 -868.18 -3344.04 268.13 1 2041
2043 2 -883.47 -3378.04 262.54 1 2042
2044 2 -898.88 -3426.04 257.14 1 2043
2045 2 -903.57 -3506.05 248.44 1 2044
2046 2 -895.78 -3543.04 245.72 1 2045
2047 2 -902.47 -3580.05 250.62 1 2046
2048 2 -925.87 -3591.05 267.03 1 2047
2049 2 -836.78 -3358.04 249.43 1 2042
2050 2 -803.48 -3377.04 222.32 1 2049
2051 2 -830.87 -3232.05 296.24 1 2039
2052 2 -834.56 -3259.05 314.13 1 2051
2053 2 -806.45 -3279.05 361.32 1 2052
2054 2 -797.44 -3291.05 376.32 1 2053
2055 2 -816.53 -3296.05 402.72 1 2054
2056 2 -808.62 -3308.06 446.62 1 2055
2057 2 -845.31 -3343.07 491.83 1 2056
2058 2 -798.57 -3227.05 314.93 1 2037
2059 2 -771.26 -3238.05 349.62 1 2058
2060 2 -733.73 -3268.05 418.71 1 2059
2061 2 -725.72 -3279.05 446.31 1 2060
2062 2 -712.51 -3297.05 477.7 1 2061
2063 2 -727.51 -3317.05 505.9 1 2062
2064 2 -735.29 -3333.06 543.8 1 2063
2065 2 -795.96 -3408.07 616.6 1 2064
2066 2 -829.05 -3443.07 650.71 1 2065
2067 2 -839.04 -3454.08 679.81 1 2066
2068 2 -840.73 -3473.08 719.61 1 2067
2069 2 -685.46 -2897.05 369.53 1 2027
2070 2 -692.26 -2901.05 386.53 1 2069
2071 2 -676.64 -2894.05 399.72 1 2070
2072 2 -654.54 -2893.06 421.52 1 2071
2073 2 -624.44 -2832.05 444.71 1 2072
2074 2 -602.33 -2809.05 457.71 1 2073
2075 2 -508.05 -2732.04 455.59 1 2074
2076 2 -491.24 -2695.05 469.48 1 2075
2077 2 -489.44 -2684.04 463.78 1 2076
2078 2 -585.02 -2812.05 498.7 1 2074
2079 2 -704.86 -2905.05 383.04 1 2069
2080 2 -715.05 -2907.05 397.54 1 2079
2081 2 -727.74 -2926.05 421.05 1 2080
2082 2 -752.34 -2949.05 430.35 1 2081
2083 2 -789.94 -3002.06 450.56 1 2082
2084 2 -799.73 -3017.06 463.26 1 2083
2085 2 -809.11 -3032.07 488.56 1 2084
2086 2 -652.07 -2860.04 349.12 1 2025
2087 2 -646.16 -2816.04 376.03 1 2021
2088 2 -639.57 -2834.03 375.42 1 2087
2089 2 -631.97 -2857.04 375.81 1 2088
2090 2 -623.66 -2867.04 373.01 1 2089
2091 2 -616.16 -2899.04 384.21 1 2090
2092 2 -604.25 -2925.04 399.5 1 2091
2093 2 -612.55 -2964.04 397.1 1 2092
2094 2 -602.15 -2996.04 394.99 1 2093
2095 2 -604.35 -3027.04 390.99 1 2094
2096 2 -599.75 -3048.04 387.49 1 2095
2097 2 -607.05 -3078.04 389.69 1 2096
2098 2 -620.55 -3149.04 365.59 1 2097
2099 2 -620.85 -3165.04 361.59 1 2098
2100 2 -629.45 -3175.03 354.49 1 2099
2101 2 -632.96 -3183.03 350.19 1 2100
2102 2 -651.56 -3201.04 337 1 2101
2103 2 -662.17 -3226.04 327.7 1 2102
2104 2 -674.47 -3240.04 317.9 1 2103
2105 2 -684.76 -3255.04 310.8 1 2104
2106 2 -694.66 -3263.04 309.6 1 2105
2107 2 -781.55 -3266.05 353.43 1 2106
2108 2 -621.15 -2988.04 392.01 1 2093
2109 2 -625.64 -3017.04 390 1 2108
2110 2 -638.75 -3066.04 378.8 1 2109
2111 2 -635.75 -3082.04 377.1 1 2110
2112 2 -636.76 -3115.04 375.29 1 2111
2113 2 -645.05 -3141.04 370.3 1 2112
2114 2 -675.76 -3204.04 356.7 1 2113
2115 2 -672.36 -3215.04 354.6 1 2114
2116 2 -669.56 -3232.04 364.7 1 2115
2117 2 -688.35 -3264.05 371.1 1 2116
2118 2 -703.45 -3285.05 371.4 1 2117
2119 2 -701.94 -3291.05 375.19 1 2118
2120 2 -710.14 -3307.05 374.4 1 2119
2121 2 -726.64 -3338.05 375 1 2120
2122 2 -746.54 -3366.05 377.9 1 2121
2123 2 -756.23 -3382.05 377.2 1 2122
2124 2 -763.93 -3395.05 377.11 1 2123
2125 2 -766.33 -3403.05 380.11 1 2124
2126 2 -796.54 -3458.05 390.8 1 2125
2127 2 -716.74 -3313.05 386.1 1 2120
2128 2 -731.23 -3297.05 402.01 1 2127
2129 2 -744.63 -3288.05 415.22 1 2128
2130 2 -758.92 -3281.05 424.42 1 2129
2131 2 -762.82 -3274.05 445.52 1 2130
2132 2 -749.71 -3263.05 463.42 1 2131
2133 2 -755.92 -3256.05 482.02 1 2132
2134 2 -760.4 -3249.06 535.02 1 2133
2135 2 -768.22 -3274.05 423.42 1 2130
2136 2 -789.12 -3269.06 431.73 1 2135
2137 2 -797.83 -3255.06 451.22 1 2136
2138 2 -816.72 -3238.07 481.13 1 2137
2139 2 -699.33 -3342.05 419.09 1 2127
2140 2 -696.12 -3363.05 448.19 1 2139
2141 2 -689.72 -3373.05 458.29 1 2140
2142 2 -691.2 -3397.06 487.29 1 2141
2143 2 -686.69 -3419.06 512.99 1 2142
2144 2 -651.47 -3510.07 595.96 1 2143
2145 2 -630.46 -3514.06 618.26 1 2144
2146 2 -685.26 -3242.04 348.4 1 2115
2147 2 -722.76 -3303.04 331.71 1 2146
2148 2 -744.67 -3334.04 317.51 1 2147
2149 2 -764.36 -3343.04 328.12 1 2148
2150 2 -819.45 -3392.05 330.62 1 2149
2151 2 -841.65 -3415.05 332.42 1 2150
2152 2 -889.35 -3468.05 329.33 1 2151
2153 2 -901.85 -3487.06 330.74 1 2152
2154 2 -909.95 -3494.05 333.04 1 2153
2155 2 -932.54 -3515.05 334.24 1 2154
2156 2 -620.45 -2909.05 398.71 1 2091
2157 2 -621.74 -2930.05 422.61 1 2156
2158 2 -631.94 -2946.05 443.11 1 2157
2159 2 -635.93 -2963.05 464.21 1 2158
2160 2 -626.73 -2972.05 467.71 1 2159
2161 2 -598.73 -2978.05 476.99 1 2160